PE IR       SUBTECH     SPECTRUM    ASCII       PEDS        4.00        
   -1
TE110A_043_80K_AFTER_110K_BG.ASC
20/05/14
13:12:56.00
20/05/14
13:12:56.00
Administrator
TE110A.Thursday, May 14 2020, 012.
1000.000000
#HDR
-1
-1
#GR
cm-1
EGY
1.0
0.0
6000.000000
-2.000000
2501
8
105.433832
11.033057
#DATA
6000.000000	16.666499
5998.000000	16.699059
5996.000000	16.731441
5994.000000	16.763179
5992.000000	16.793279
5990.000000	16.824710
5988.000000	16.857948
5986.000000	16.892991
5984.000000	16.927939
5982.000000	16.960613
5980.000000	16.993100
5978.000000	17.025689
5976.000000	17.058841
5974.000000	17.092350
5972.000000	17.125945
5970.000000	17.160692
5968.000000	17.195307
5966.000000	17.229242
5964.000000	17.262717
5962.000000	17.297300
5960.000000	17.332651
5958.000000	17.368324
5956.000000	17.402836
5954.000000	17.437012
5952.000000	17.469879
5950.000000	17.503080
5948.000000	17.537194
5946.000000	17.572381
5944.000000	17.606932
5942.000000	17.640145
5940.000000	17.673180
5938.000000	17.707506
5936.000000	17.742124
5934.000000	17.776299
5932.000000	17.809552
5930.000000	17.843205
5928.000000	17.877067
5926.000000	17.912162
5924.000000	17.947806
5922.000000	17.983327
5920.000000	18.017887
5918.000000	18.052837
5916.000000	18.088856
5914.000000	18.126208
5912.000000	18.163554
5910.000000	18.201091
5908.000000	18.238838
5906.000000	18.274935
5904.000000	18.310205
5902.000000	18.345464
5900.000000	18.381387
5898.000000	18.418328
5896.000000	18.455318
5894.000000	18.492067
5892.000000	18.527663
5890.000000	18.562508
5888.000000	18.597173
5886.000000	18.632903
5884.000000	18.668775
5882.000000	18.704890
5880.000000	18.741170
5878.000000	18.777517
5876.000000	18.815040
5874.000000	18.852098
5872.000000	18.888511
5870.000000	18.924479
5868.000000	18.961312
5866.000000	18.999620
5864.000000	19.037240
5862.000000	19.074855
5860.000000	19.112240
5858.000000	19.150701
5856.000000	19.189084
5854.000000	19.227240
5852.000000	19.265185
5850.000000	19.303390
5848.000000	19.341934
5846.000000	19.380956
5844.000000	19.420298
5842.000000	19.460690
5840.000000	19.502052
5838.000000	19.544151
5836.000000	19.585930
5834.000000	19.627407
5832.000000	19.668674
5830.000000	19.710215
5828.000000	19.751698
5826.000000	19.793088
5824.000000	19.834774
5822.000000	19.875461
5820.000000	19.916063
5818.000000	19.956678
5816.000000	19.997737
5814.000000	20.039384
5812.000000	20.080617
5810.000000	20.121766
5808.000000	20.161985
5806.000000	20.200779
5804.000000	20.239218
5802.000000	20.279045
5800.000000	20.319588
5798.000000	20.361799
5796.000000	20.403981
5794.000000	20.445149
5792.000000	20.485568
5790.000000	20.526970
5788.000000	20.568946
5786.000000	20.610986
5784.000000	20.651112
5782.000000	20.691464
5780.000000	20.732602
5778.000000	20.773993
5776.000000	20.816471
5774.000000	20.859160
5772.000000	20.901157
5770.000000	20.943316
5768.000000	20.985448
5766.000000	21.028538
5764.000000	21.070390
5762.000000	21.110484
5760.000000	21.150982
5758.000000	21.192700
5756.000000	21.235656
5754.000000	21.278107
5752.000000	21.319747
5750.000000	21.361410
5748.000000	21.403261
5746.000000	21.444354
5744.000000	21.484847
5742.000000	21.525667
5740.000000	21.566398
5738.000000	21.607633
5736.000000	21.648117
5734.000000	21.688266
5732.000000	21.728843
5730.000000	21.768959
5728.000000	21.810026
5726.000000	21.851820
5724.000000	21.893531
5722.000000	21.934965
5720.000000	21.975321
5718.000000	22.016621
5716.000000	22.059721
5714.000000	22.104396
5712.000000	22.149627
5710.000000	22.193725
5708.000000	22.237367
5706.000000	22.281066
5704.000000	22.325206
5702.000000	22.369576
5700.000000	22.413577
5698.000000	22.457837
5696.000000	22.502418
5694.000000	22.546797
5692.000000	22.591397
5690.000000	22.636732
5688.000000	22.683130
5686.000000	22.729141
5684.000000	22.774380
5682.000000	22.819084
5680.000000	22.864176
5678.000000	22.909145
5676.000000	22.953558
5674.000000	22.998249
5672.000000	23.043715
5670.000000	23.089704
5668.000000	23.136016
5666.000000	23.181732
5664.000000	23.226756
5662.000000	23.271865
5660.000000	23.317693
5658.000000	23.364949
5656.000000	23.410811
5654.000000	23.455414
5652.000000	23.499631
5650.000000	23.545285
5648.000000	23.591210
5646.000000	23.636986
5644.000000	23.682368
5642.000000	23.727300
5640.000000	23.771791
5638.000000	23.817300
5636.000000	23.863162
5634.000000	23.908852
5632.000000	23.953839
5630.000000	23.998558
5628.000000	24.043493
5626.000000	24.088608
5624.000000	24.134000
5622.000000	24.179842
5620.000000	24.225961
5618.000000	24.271624
5616.000000	24.316221
5614.000000	24.360080
5612.000000	24.404681
5610.000000	24.450568
5608.000000	24.496702
5606.000000	24.542513
5604.000000	24.587624
5602.000000	24.633082
5600.000000	24.679362
5598.000000	24.726488
5596.000000	24.773376
5594.000000	24.819875
5592.000000	24.865905
5590.000000	24.912489
5588.000000	24.958957
5586.000000	25.005350
5584.000000	25.051669
5582.000000	25.098085
5580.000000	25.145026
5578.000000	25.193128
5576.000000	25.240901
5574.000000	25.288671
5572.000000	25.335724
5570.000000	25.383618
5568.000000	25.431634
5566.000000	25.479231
5564.000000	25.526600
5562.000000	25.574821
5560.000000	25.623135
5558.000000	25.670674
5556.000000	25.716851
5554.000000	25.762497
5552.000000	25.810031
5550.000000	25.857910
5548.000000	25.905700
5546.000000	25.954037
5544.000000	26.002899
5542.000000	26.050789
5540.000000	26.095604
5538.000000	26.140555
5536.000000	26.187200
5534.000000	26.235929
5532.000000	26.284807
5530.000000	26.333669
5528.000000	26.382204
5526.000000	26.428471
5524.000000	26.473662
5522.000000	26.519306
5520.000000	26.565874
5518.000000	26.613497
5516.000000	26.661432
5514.000000	26.710621
5512.000000	26.758167
5510.000000	26.803045
5508.000000	26.848222
5506.000000	26.896484
5504.000000	26.946444
5502.000000	26.995379
5500.000000	27.043731
5498.000000	27.089713
5496.000000	27.129249
5494.000000	27.168048
5492.000000	27.212313
5490.000000	27.265434
5488.000000	27.321473
5486.000000	27.378032
5484.000000	27.433431
5482.000000	27.485001
5480.000000	27.527496
5478.000000	27.561946
5476.000000	27.601512
5474.000000	27.653959
5472.000000	27.712799
5470.000000	27.766204
5468.000000	27.814311
5466.000000	27.861363
5464.000000	27.905209
5462.000000	27.950446
5460.000000	28.002098
5458.000000	28.059717
5456.000000	28.117145
5454.000000	28.167896
5452.000000	28.210655
5450.000000	28.246528
5448.000000	28.282216
5446.000000	28.324769
5444.000000	28.371881
5442.000000	28.426486
5440.000000	28.482059
5438.000000	28.531703
5436.000000	28.577754
5434.000000	28.623350
5432.000000	28.667547
5430.000000	28.712327
5428.000000	28.767184
5426.000000	28.835224
5424.000000	28.901005
5422.000000	28.957767
5420.000000	29.006706
5418.000000	29.039783
5416.000000	29.060568
5414.000000	29.086911
5412.000000	29.135736
5410.000000	29.204191
5408.000000	29.273935
5406.000000	29.336451
5404.000000	29.391567
5402.000000	29.443549
5400.000000	29.489964
5398.000000	29.524798
5396.000000	29.555353
5394.000000	29.601468
5392.000000	29.664829
5390.000000	29.726634
5388.000000	29.772461
5386.000000	29.818139
5384.000000	29.875869
5382.000000	29.933553
5380.000000	29.973658
5378.000000	30.008018
5376.000000	30.056961
5374.000000	30.124210
5372.000000	30.193189
5370.000000	30.253086
5368.000000	30.303398
5366.000000	30.349595
5364.000000	30.398864
5362.000000	30.453922
5360.000000	30.507734
5358.000000	30.547927
5356.000000	30.575306
5354.000000	30.610862
5352.000000	30.664109
5350.000000	30.722828
5348.000000	30.762367
5346.000000	30.796477
5344.000000	30.844164
5342.000000	30.896373
5340.000000	30.942470
5338.000000	30.993688
5336.000000	31.062164
5334.000000	31.132707
5332.000000	31.187248
5330.000000	31.230971
5328.000000	31.278113
5326.000000	31.336992
5324.000000	31.403835
5322.000000	31.465048
5320.000000	31.516016
5318.000000	31.563113
5316.000000	31.612781
5314.000000	31.665948
5312.000000	31.714286
5310.000000	31.754117
5308.000000	31.796433
5306.000000	31.848639
5304.000000	31.906869
5302.000000	31.963129
5300.000000	32.017714
5298.000000	32.072477
5296.000000	32.123660
5294.000000	32.166458
5292.000000	32.206609
5290.000000	32.254717
5288.000000	32.310965
5286.000000	32.368476
5284.000000	32.422402
5282.000000	32.476737
5280.000000	32.532071
5278.000000	32.588609
5276.000000	32.644849
5274.000000	32.696527
5272.000000	32.743096
5270.000000	32.787524
5268.000000	32.825327
5266.000000	32.858935
5264.000000	32.902164
5262.000000	32.966017
5260.000000	33.035824
5258.000000	33.089997
5256.000000	33.134676
5254.000000	33.185411
5252.000000	33.236376
5250.000000	33.279168
5248.000000	33.320063
5246.000000	33.374131
5244.000000	33.441445
5242.000000	33.510573
5240.000000	33.574148
5238.000000	33.627557
5236.000000	33.675443
5234.000000	33.721519
5232.000000	33.769402
5230.000000	33.816060
5228.000000	33.856963
5226.000000	33.901404
5224.000000	33.958901
5222.000000	34.024401
5220.000000	34.083461
5218.000000	34.137833
5216.000000	34.193391
5214.000000	34.247881
5212.000000	34.291593
5210.000000	34.322035
5208.000000	34.355286
5206.000000	34.411417
5204.000000	34.486748
5202.000000	34.558738
5200.000000	34.612666
5198.000000	34.660981
5196.000000	34.715272
5194.000000	34.774805
5192.000000	34.830868
5190.000000	34.881555
5188.000000	34.929729
5186.000000	34.980172
5184.000000	35.035870
5182.000000	35.095982
5180.000000	35.154278
5178.000000	35.210684
5176.000000	35.267140
5174.000000	35.322355
5172.000000	35.375342
5170.000000	35.429116
5168.000000	35.483542
5166.000000	35.536486
5164.000000	35.588774
5162.000000	35.643106
5160.000000	35.698510
5158.000000	35.752793
5156.000000	35.806903
5154.000000	35.861540
5152.000000	35.917791
5150.000000	35.975276
5148.000000	36.031592
5146.000000	36.084987
5144.000000	36.136386
5142.000000	36.189406
5140.000000	36.244665
5138.000000	36.300540
5136.000000	36.354721
5134.000000	36.407604
5132.000000	36.461168
5130.000000	36.516275
5128.000000	36.572065
5126.000000	36.626916
5124.000000	36.680074
5122.000000	36.732459
5120.000000	36.785104
5118.000000	36.839578
5116.000000	36.894420
5114.000000	36.949728
5112.000000	37.004499
5110.000000	37.059770
5108.000000	37.114666
5106.000000	37.170149
5104.000000	37.225683
5102.000000	37.281168
5100.000000	37.336417
5098.000000	37.392085
5096.000000	37.448180
5094.000000	37.504764
5092.000000	37.561220
5090.000000	37.617191
5088.000000	37.673254
5086.000000	37.730115
5084.000000	37.786595
5082.000000	37.843168
5080.000000	37.900026
5078.000000	37.957486
5076.000000	38.013891
5074.000000	38.069585
5072.000000	38.124686
5070.000000	38.181480
5068.000000	38.239384
5066.000000	38.297066
5064.000000	38.353303
5062.000000	38.408826
5060.000000	38.464629
5058.000000	38.521332
5056.000000	38.579197
5054.000000	38.635892
5052.000000	38.691016
5050.000000	38.746005
5048.000000	38.801537
5046.000000	38.857447
5044.000000	38.913270
5042.000000	38.969860
5040.000000	39.026699
5038.000000	39.083395
5036.000000	39.138683
5034.000000	39.193874
5032.000000	39.250023
5030.000000	39.306725
5028.000000	39.362289
5026.000000	39.417669
5024.000000	39.473181
5022.000000	39.528578
5020.000000	39.583969
5018.000000	39.640459
5016.000000	39.696893
5014.000000	39.753441
5012.000000	39.810213
5010.000000	39.868107
5008.000000	39.925573
5006.000000	39.982217
5004.000000	40.038821
5002.000000	40.095960
5000.000000	40.153555
4998.000000	40.211615
4996.000000	40.270552
4994.000000	40.329565
4992.000000	40.386885
4990.000000	40.444642
4988.000000	40.503072
4986.000000	40.562046
4984.000000	40.620403
4982.000000	40.678941
4980.000000	40.736542
4978.000000	40.794593
4976.000000	40.853043
4974.000000	40.910903
4972.000000	40.967737
4970.000000	41.025880
4968.000000	41.084168
4966.000000	41.141545
4964.000000	41.197988
4962.000000	41.255131
4960.000000	41.312883
4958.000000	41.371174
4956.000000	41.429523
4954.000000	41.486816
4952.000000	41.543207
4950.000000	41.600514
4948.000000	41.658177
4946.000000	41.713985
4944.000000	41.768707
4942.000000	41.825702
4940.000000	41.883857
4938.000000	41.941210
4936.000000	41.997438
4934.000000	42.053511
4932.000000	42.109183
4930.000000	42.166202
4928.000000	42.223999
4926.000000	42.281510
4924.000000	42.337746
4922.000000	42.394700
4920.000000	42.452205
4918.000000	42.509732
4916.000000	42.567044
4914.000000	42.624809
4912.000000	42.683079
4910.000000	42.741607
4908.000000	42.799115
4906.000000	42.857233
4904.000000	42.916726
4902.000000	42.977092
4900.000000	43.036103
4898.000000	43.094540
4896.000000	43.152514
4894.000000	43.211066
4892.000000	43.270504
4890.000000	43.330516
4888.000000	43.389193
4886.000000	43.447644
4884.000000	43.506978
4882.000000	43.567807
4880.000000	43.628013
4878.000000	43.687591
4876.000000	43.746095
4874.000000	43.804926
4872.000000	43.864632
4870.000000	43.924454
4868.000000	43.982484
4866.000000	44.040125
4864.000000	44.097800
4862.000000	44.155291
4860.000000	44.212632
4858.000000	44.271346
4856.000000	44.329984
4854.000000	44.388074
4852.000000	44.445483
4850.000000	44.503115
4848.000000	44.560544
4846.000000	44.618354
4844.000000	44.676345
4842.000000	44.734813
4840.000000	44.792976
4838.000000	44.850859
4836.000000	44.907867
4834.000000	44.965128
4832.000000	45.022071
4830.000000	45.079837
4828.000000	45.138376
4826.000000	45.197152
4824.000000	45.254332
4822.000000	45.311363
4820.000000	45.369276
4818.000000	45.428201
4816.000000	45.486583
4814.000000	45.545569
4812.000000	45.605936
4810.000000	45.667398
4808.000000	45.727329
4806.000000	45.786296
4804.000000	45.844641
4802.000000	45.904218
4800.000000	45.964356
4798.000000	46.024942
4796.000000	46.084726
4794.000000	46.145308
4792.000000	46.206062
4790.000000	46.267804
4788.000000	46.329465
4786.000000	46.390805
4784.000000	46.450875
4782.000000	46.510825
4780.000000	46.569516
4778.000000	46.627994
4776.000000	46.687770
4774.000000	46.748803
4772.000000	46.808278
4770.000000	46.867682
4768.000000	46.927859
4766.000000	46.987414
4764.000000	47.044676
4762.000000	47.103002
4760.000000	47.162666
4758.000000	47.221726
4756.000000	47.279633
4754.000000	47.339267
4752.000000	47.398892
4750.000000	47.457639
4748.000000	47.515544
4746.000000	47.573215
4744.000000	47.629609
4742.000000	47.687510
4740.000000	47.746641
4738.000000	47.804971
4736.000000	47.861659
4734.000000	47.919757
4732.000000	47.978115
4730.000000	48.036471
4728.000000	48.094852
4726.000000	48.153973
4724.000000	48.212676
4722.000000	48.273046
4720.000000	48.334632
4718.000000	48.395910
4716.000000	48.456150
4714.000000	48.517948
4712.000000	48.580579
4710.000000	48.642926
4708.000000	48.704936
4706.000000	48.768091
4704.000000	48.830736
4702.000000	48.893307
4700.000000	48.956311
4698.000000	49.020033
4696.000000	49.083496
4694.000000	49.146524
4692.000000	49.207566
4690.000000	49.267989
4688.000000	49.328964
4686.000000	49.390696
4684.000000	49.451450
4682.000000	49.512126
4680.000000	49.573292
4678.000000	49.635661
4676.000000	49.697244
4674.000000	49.758266
4672.000000	49.819591
4670.000000	49.882306
4668.000000	49.944797
4666.000000	50.006210
4664.000000	50.066123
4662.000000	50.126363
4660.000000	50.186963
4658.000000	50.248317
4656.000000	50.308919
4654.000000	50.369319
4652.000000	50.429503
4650.000000	50.490536
4648.000000	50.551057
4646.000000	50.612505
4644.000000	50.674463
4642.000000	50.736500
4640.000000	50.797231
4638.000000	50.857861
4636.000000	50.919032
4634.000000	50.981749
4632.000000	51.042807
4630.000000	51.101882
4628.000000	51.161774
4626.000000	51.224420
4624.000000	51.286955
4622.000000	51.349264
4620.000000	51.410719
4618.000000	51.472603
4616.000000	51.534718
4614.000000	51.598802
4612.000000	51.664391
4610.000000	51.730349
4608.000000	51.794719
4606.000000	51.859784
4604.000000	51.924490
4602.000000	51.988358
4600.000000	52.052581
4598.000000	52.118834
4596.000000	52.184526
4594.000000	52.249866
4592.000000	52.315067
4590.000000	52.379424
4588.000000	52.441770
4586.000000	52.505707
4584.000000	52.571297
4582.000000	52.636757
4580.000000	52.699830
4578.000000	52.762802
4576.000000	52.827191
4574.000000	52.892690
4572.000000	52.956161
4570.000000	53.018737
4568.000000	53.081960
4566.000000	53.146461
4564.000000	53.209957
4562.000000	53.272600
4560.000000	53.334677
4558.000000	53.397537
4556.000000	53.459919
4554.000000	53.522278
4552.000000	53.584202
4550.000000	53.646813
4548.000000	53.709106
4546.000000	53.771762
4544.000000	53.834151
4542.000000	53.897885
4540.000000	53.961387
4538.000000	54.024225
4536.000000	54.086536
4534.000000	54.149964
4532.000000	54.213141
4530.000000	54.276497
4528.000000	54.339355
4526.000000	54.402703
4524.000000	54.466886
4522.000000	54.531522
4520.000000	54.594840
4518.000000	54.658804
4516.000000	54.724252
4514.000000	54.789016
4512.000000	54.851383
4510.000000	54.915689
4508.000000	54.982444
4506.000000	55.049365
4504.000000	55.114946
4502.000000	55.180803
4500.000000	55.246154
4498.000000	55.311664
4496.000000	55.377280
4494.000000	55.443786
4492.000000	55.508842
4490.000000	55.573023
4488.000000	55.637774
4486.000000	55.703722
4484.000000	55.768902
4482.000000	55.833625
4480.000000	55.897141
4478.000000	55.961551
4476.000000	56.025054
4474.000000	56.087508
4472.000000	56.150219
4470.000000	56.214353
4468.000000	56.277244
4466.000000	56.340648
4464.000000	56.402773
4462.000000	56.464395
4460.000000	56.526592
4458.000000	56.589872
4456.000000	56.651578
4454.000000	56.713262
4452.000000	56.775778
4450.000000	56.839422
4448.000000	56.902253
4446.000000	56.964421
4444.000000	57.025560
4442.000000	57.087487
4440.000000	57.149553
4438.000000	57.212131
4436.000000	57.274160
4434.000000	57.336691
4432.000000	57.399232
4430.000000	57.461976
4428.000000	57.524556
4426.000000	57.589167
4424.000000	57.652954
4422.000000	57.715614
4420.000000	57.778829
4418.000000	57.844147
4416.000000	57.908598
4414.000000	57.972433
4412.000000	58.036854
4410.000000	58.103040
4408.000000	58.167866
4406.000000	58.232445
4404.000000	58.296749
4402.000000	58.361125
4400.000000	58.425434
4398.000000	58.490067
4396.000000	58.553470
4394.000000	58.616620
4392.000000	58.678592
4390.000000	58.741394
4388.000000	58.804063
4386.000000	58.865895
4384.000000	58.927018
4382.000000	58.988961
4380.000000	59.049892
4378.000000	59.110707
4376.000000	59.170843
4374.000000	59.231247
4372.000000	59.290991
4370.000000	59.350866
4368.000000	59.410567
4366.000000	59.471404
4364.000000	59.532267
4362.000000	59.593632
4360.000000	59.654984
4358.000000	59.716999
4356.000000	59.778914
4354.000000	59.842127
4352.000000	59.905319
4350.000000	59.968382
4348.000000	60.030406
4346.000000	60.093444
4344.000000	60.156935
4342.000000	60.219868
4340.000000	60.282001
4338.000000	60.345778
4336.000000	60.409143
4334.000000	60.473304
4332.000000	60.538440
4330.000000	60.603578
4328.000000	60.667403
4326.000000	60.731791
4324.000000	60.796627
4322.000000	60.864324
4320.000000	60.933251
4318.000000	61.001643
4316.000000	61.067942
4314.000000	61.134596
4312.000000	61.201458
4310.000000	61.269209
4308.000000	61.336350
4306.000000	61.403348
4304.000000	61.469826
4302.000000	61.536767
4300.000000	61.602779
4298.000000	61.668466
4296.000000	61.733059
4294.000000	61.797349
4292.000000	61.861111
