Created as New Dataset,Sample 037 By Administrator Date Monday, February 10 2020
cm-1,A
6000.00,1.0275
5999.00,1.0269
5998.00,1.0262
5997.00,1.0259
5996.00,1.0261
5995.00,1.0263
5994.00,1.0266
5993.00,1.0266
5992.00,1.0264
5991.00,1.0261
5990.00,1.0259
5989.00,1.0257
5988.00,1.0255
5987.00,1.0253
5986.00,1.0252
5985.00,1.0251
5984.00,1.0252
5983.00,1.0253
5982.00,1.0254
5981.00,1.0255
5980.00,1.0254
5979.00,1.0254
5978.00,1.0254
5977.00,1.0255
5976.00,1.0255
5975.00,1.0255
5974.00,1.0257
5973.00,1.0260
5972.00,1.0264
5971.00,1.0265
5970.00,1.0264
5969.00,1.0262
5968.00,1.0261
5967.00,1.0261
5966.00,1.0260
5965.00,1.0260
5964.00,1.0259
5963.00,1.0259
5962.00,1.0260
5961.00,1.0260
5960.00,1.0260
5959.00,1.0262
5958.00,1.0263
5957.00,1.0264
5956.00,1.0264
5955.00,1.0264
5954.00,1.0264
5953.00,1.0265
5952.00,1.0265
5951.00,1.0263
5950.00,1.0260
5949.00,1.0257
5948.00,1.0256
5947.00,1.0256
5946.00,1.0257
5945.00,1.0258
5944.00,1.0259
5943.00,1.0259
5942.00,1.0259
5941.00,1.0260
5940.00,1.0261
5939.00,1.0262
5938.00,1.0263
5937.00,1.0264
5936.00,1.0265
5935.00,1.0265
5934.00,1.0263
5933.00,1.0261
5932.00,1.0261
5931.00,1.0263
5930.00,1.0264
5929.00,1.0264
5928.00,1.0263
5927.00,1.0262
5926.00,1.0260
5925.00,1.0258
5924.00,1.0258
5923.00,1.0258
5922.00,1.0259
5921.00,1.0260
5920.00,1.0262
5919.00,1.0266
5918.00,1.0269
5917.00,1.0269
5916.00,1.0267
5915.00,1.0264
5914.00,1.0263
5913.00,1.0262
5912.00,1.0261
5911.00,1.0260
5910.00,1.0259
5909.00,1.0259
5908.00,1.0260
5907.00,1.0259
5906.00,1.0257
5905.00,1.0254
5904.00,1.0254
5903.00,1.0255
5902.00,1.0256
5901.00,1.0257
5900.00,1.0258
5899.00,1.0260
5898.00,1.0261
5897.00,1.0261
5896.00,1.0259
5895.00,1.0257
5894.00,1.0255
5893.00,1.0255
5892.00,1.0256
5891.00,1.0258
5890.00,1.0260
5889.00,1.0262
5888.00,1.0261
5887.00,1.0259
5886.00,1.0256
5885.00,1.0254
5884.00,1.0249
5883.00,1.0243
5882.00,1.0237
5881.00,1.0235
5880.00,1.0236
5879.00,1.0239
5878.00,1.0241
5877.00,1.0242
5876.00,1.0245
5875.00,1.0246
5874.00,1.0245
5873.00,1.0243
5872.00,1.0243
5871.00,1.0245
5870.00,1.0248
5869.00,1.0252
5868.00,1.0255
5867.00,1.0257
5866.00,1.0257
5865.00,1.0256
5864.00,1.0254
5863.00,1.0252
5862.00,1.0252
5861.00,1.0253
5860.00,1.0255
5859.00,1.0256
5858.00,1.0257
5857.00,1.0256
5856.00,1.0254
5855.00,1.0251
5854.00,1.0249
5853.00,1.0249
5852.00,1.0251
5851.00,1.0255
5850.00,1.0257
5849.00,1.0257
5848.00,1.0257
5847.00,1.0256
5846.00,1.0254
5845.00,1.0252
5844.00,1.0249
5843.00,1.0248
5842.00,1.0247
5841.00,1.0247
5840.00,1.0248
5839.00,1.0248
5838.00,1.0249
5837.00,1.0250
5836.00,1.0251
5835.00,1.0251
5834.00,1.0252
5833.00,1.0253
5832.00,1.0255
5831.00,1.0256
5830.00,1.0256
5829.00,1.0255
5828.00,1.0253
5827.00,1.0251
5826.00,1.0250
5825.00,1.0251
5824.00,1.0253
5823.00,1.0254
5822.00,1.0254
5821.00,1.0252
5820.00,1.0249
5819.00,1.0247
5818.00,1.0247
5817.00,1.0248
5816.00,1.0251
5815.00,1.0254
5814.00,1.0256
5813.00,1.0258
5812.00,1.0259
5811.00,1.0260
5810.00,1.0262
5809.00,1.0264
5808.00,1.0266
5807.00,1.0268
5806.00,1.0267
5805.00,1.0264
5804.00,1.0261
5803.00,1.0258
5802.00,1.0257
5801.00,1.0258
5800.00,1.0260
5799.00,1.0262
5798.00,1.0263
5797.00,1.0262
5796.00,1.0261
5795.00,1.0259
5794.00,1.0257
5793.00,1.0256
5792.00,1.0255
5791.00,1.0256
5790.00,1.0256
5789.00,1.0254
5788.00,1.0252
5787.00,1.0249
5786.00,1.0246
5785.00,1.0244
5784.00,1.0245
5783.00,1.0246
5782.00,1.0249
5781.00,1.0250
5780.00,1.0251
5779.00,1.0251
5778.00,1.0249
5777.00,1.0248
5776.00,1.0247
5775.00,1.0247
5774.00,1.0249
5773.00,1.0253
5772.00,1.0255
5771.00,1.0257
5770.00,1.0256
5769.00,1.0254
5768.00,1.0252
5767.00,1.0251
5766.00,1.0248
5765.00,1.0247
5764.00,1.0246
5763.00,1.0246
5762.00,1.0248
5761.00,1.0250
5760.00,1.0254
5759.00,1.0260
5758.00,1.0269
5757.00,1.0278
5756.00,1.0287
5755.00,1.0290
5754.00,1.0287
5753.00,1.0280
5752.00,1.0271
5751.00,1.0260
5750.00,1.0251
5749.00,1.0244
5748.00,1.0242
5747.00,1.0243
5746.00,1.0245
5745.00,1.0247
5744.00,1.0250
5743.00,1.0253
5742.00,1.0256
5741.00,1.0258
5740.00,1.0258
5739.00,1.0257
5738.00,1.0254
5737.00,1.0251
5736.00,1.0249
5735.00,1.0248
5734.00,1.0248
5733.00,1.0248
5732.00,1.0247
5731.00,1.0246
5730.00,1.0244
5729.00,1.0242
5728.00,1.0241
5727.00,1.0243
5726.00,1.0245
5725.00,1.0246
5724.00,1.0248
5723.00,1.0249
5722.00,1.0250
5721.00,1.0250
5720.00,1.0250
5719.00,1.0251
5718.00,1.0252
5717.00,1.0252
5716.00,1.0254
5715.00,1.0255
5714.00,1.0255
5713.00,1.0255
5712.00,1.0254
5711.00,1.0254
5710.00,1.0253
5709.00,1.0251
5708.00,1.0250
5707.00,1.0249
5706.00,1.0248
5705.00,1.0247
5704.00,1.0248
5703.00,1.0249
5702.00,1.0249
5701.00,1.0250
5700.00,1.0251
5699.00,1.0253
5698.00,1.0255
5697.00,1.0256
5696.00,1.0258
5695.00,1.0258
5694.00,1.0257
5693.00,1.0255
5692.00,1.0252
5691.00,1.0250
5690.00,1.0248
5689.00,1.0246
5688.00,1.0246
5687.00,1.0246
5686.00,1.0246
5685.00,1.0247
5684.00,1.0248
5683.00,1.0250
5682.00,1.0252
5681.00,1.0252
5680.00,1.0253
5679.00,1.0254
5678.00,1.0254
5677.00,1.0253
5676.00,1.0251
5675.00,1.0250
5674.00,1.0250
5673.00,1.0250
5672.00,1.0250
5671.00,1.0249
5670.00,1.0249
5669.00,1.0248
5668.00,1.0247
5667.00,1.0248
5666.00,1.0249
5665.00,1.0250
5664.00,1.0251
5663.00,1.0252
5662.00,1.0250
5661.00,1.0248
5660.00,1.0245
5659.00,1.0244
5658.00,1.0244
5657.00,1.0244
5656.00,1.0245
5655.00,1.0246
5654.00,1.0248
5653.00,1.0248
5652.00,1.0248
5651.00,1.0247
5650.00,1.0246
5649.00,1.0245
5648.00,1.0244
5647.00,1.0244
5646.00,1.0245
5645.00,1.0246
5644.00,1.0248
5643.00,1.0249
5642.00,1.0249
5641.00,1.0249
5640.00,1.0249
5639.00,1.0249
5638.00,1.0250
5637.00,1.0251
5636.00,1.0252
5635.00,1.0251
5634.00,1.0250
5633.00,1.0249
5632.00,1.0249
5631.00,1.0250
5630.00,1.0249
5629.00,1.0247
5628.00,1.0247
5627.00,1.0248
5626.00,1.0250
5625.00,1.0252
5624.00,1.0253
5623.00,1.0254
5622.00,1.0254
5621.00,1.0251
5620.00,1.0247
5619.00,1.0244
5618.00,1.0242
5617.00,1.0243
5616.00,1.0245
5615.00,1.0248
5614.00,1.0250
5613.00,1.0250
5612.00,1.0249
5611.00,1.0248
5610.00,1.0247
5609.00,1.0248
5608.00,1.0249
5607.00,1.0252
5606.00,1.0254
5605.00,1.0254
5604.00,1.0253
5603.00,1.0251
5602.00,1.0248
5601.00,1.0247
5600.00,1.0247
5599.00,1.0249
5598.00,1.0250
5597.00,1.0250
5596.00,1.0249
5595.00,1.0249
5594.00,1.0247
5593.00,1.0245
5592.00,1.0244
5591.00,1.0243
5590.00,1.0243
5589.00,1.0243
5588.00,1.0245
5587.00,1.0247
5586.00,1.0248
5585.00,1.0250
5584.00,1.0250
5583.00,1.0249
5582.00,1.0247
5581.00,1.0245
5580.00,1.0244
5579.00,1.0245
5578.00,1.0247
5577.00,1.0250
5576.00,1.0253
5575.00,1.0254
5574.00,1.0252
5573.00,1.0249
5572.00,1.0248
5571.00,1.0248
5570.00,1.0250
5569.00,1.0251
5568.00,1.0253
5567.00,1.0254
5566.00,1.0253
5565.00,1.0250
5564.00,1.0247
5563.00,1.0244
5562.00,1.0243
5561.00,1.0242
5560.00,1.0242
5559.00,1.0242
5558.00,1.0244
5557.00,1.0246
5556.00,1.0248
5555.00,1.0249
5554.00,1.0249
5553.00,1.0248
5552.00,1.0245
5551.00,1.0243
5550.00,1.0242
5549.00,1.0241
5548.00,1.0241
5547.00,1.0243
5546.00,1.0244
5545.00,1.0245
5544.00,1.0246
5543.00,1.0247
5542.00,1.0248
5541.00,1.0249
5540.00,1.0250
5539.00,1.0251
5538.00,1.0252
5537.00,1.0251
5536.00,1.0249
5535.00,1.0247
5534.00,1.0245
5533.00,1.0243
5532.00,1.0242
5531.00,1.0241
5530.00,1.0241
5529.00,1.0241
5528.00,1.0241
5527.00,1.0242
5526.00,1.0243
5525.00,1.0243
5524.00,1.0244
5523.00,1.0243
5522.00,1.0243
5521.00,1.0243
5520.00,1.0244
5519.00,1.0246
5518.00,1.0248
5517.00,1.0250
5516.00,1.0252
5515.00,1.0254
5514.00,1.0254
5513.00,1.0255
5512.00,1.0255
5511.00,1.0255
5510.00,1.0252
5509.00,1.0247
5508.00,1.0242
5507.00,1.0239
5506.00,1.0236
5505.00,1.0235
5504.00,1.0235
5503.00,1.0236
5502.00,1.0239
5501.00,1.0241
5500.00,1.0241
5499.00,1.0241
5498.00,1.0241
5497.00,1.0242
5496.00,1.0243
5495.00,1.0244
5494.00,1.0244
5493.00,1.0244
5492.00,1.0245
5491.00,1.0247
5490.00,1.0248
5489.00,1.0248
5488.00,1.0247
5487.00,1.0247
5486.00,1.0247
5485.00,1.0248
5484.00,1.0249
5483.00,1.0250
5482.00,1.0251
5481.00,1.0250
5480.00,1.0249
5479.00,1.0247
5478.00,1.0246
5477.00,1.0244
5476.00,1.0242
5475.00,1.0241
5474.00,1.0241
5473.00,1.0241
5472.00,1.0240
5471.00,1.0239
5470.00,1.0237
5469.00,1.0236
5468.00,1.0237
5467.00,1.0238
5466.00,1.0239
5465.00,1.0240
5464.00,1.0242
5463.00,1.0244
5462.00,1.0246
5461.00,1.0247
5460.00,1.0248
5459.00,1.0249
5458.00,1.0248
5457.00,1.0246
5456.00,1.0244
5455.00,1.0243
5454.00,1.0242
5453.00,1.0241
5452.00,1.0240
5451.00,1.0239
5450.00,1.0239
5449.00,1.0239
5448.00,1.0240
5447.00,1.0241
5446.00,1.0241
5445.00,1.0241
5444.00,1.0242
5443.00,1.0243
5442.00,1.0242
5441.00,1.0241
5440.00,1.0240
5439.00,1.0241
5438.00,1.0241
5437.00,1.0241
5436.00,1.0240
5435.00,1.0239
5434.00,1.0240
5433.00,1.0242
5432.00,1.0244
5431.00,1.0245
5430.00,1.0244
5429.00,1.0243
5428.00,1.0243
5427.00,1.0243
5426.00,1.0244
5425.00,1.0245
5424.00,1.0245
5423.00,1.0245
5422.00,1.0245
5421.00,1.0245
5420.00,1.0244
5419.00,1.0243
5418.00,1.0242
5417.00,1.0240
5416.00,1.0239
5415.00,1.0237
5414.00,1.0237
5413.00,1.0238
5412.00,1.0241
5411.00,1.0243
5410.00,1.0245
5409.00,1.0245
5408.00,1.0246
5407.00,1.0246
5406.00,1.0245
5405.00,1.0244
5404.00,1.0244
5403.00,1.0244
5402.00,1.0244
5401.00,1.0244
5400.00,1.0245
5399.00,1.0245
5398.00,1.0244
5397.00,1.0244
5396.00,1.0244
5395.00,1.0244
5394.00,1.0244
5393.00,1.0243
5392.00,1.0243
5391.00,1.0243
5390.00,1.0243
5389.00,1.0242
5388.00,1.0241
5387.00,1.0241
5386.00,1.0241
5385.00,1.0241
5384.00,1.0242
5383.00,1.0242
5382.00,1.0240
5381.00,1.0238
5380.00,1.0235
5379.00,1.0234
5378.00,1.0233
5377.00,1.0234
5376.00,1.0235
5375.00,1.0237
5374.00,1.0239
5373.00,1.0239
5372.00,1.0240
5371.00,1.0240
5370.00,1.0240
5369.00,1.0239
5368.00,1.0239
5367.00,1.0239
5366.00,1.0239
5365.00,1.0239
5364.00,1.0239
5363.00,1.0240
5362.00,1.0241
5361.00,1.0241
5360.00,1.0240
5359.00,1.0240
5358.00,1.0240
5357.00,1.0241
5356.00,1.0241
5355.00,1.0241
5354.00,1.0239
5353.00,1.0238
5352.00,1.0237
5351.00,1.0238
5350.00,1.0238
5349.00,1.0238
5348.00,1.0240
5347.00,1.0242
5346.00,1.0243
5345.00,1.0241
5344.00,1.0239
5343.00,1.0239
5342.00,1.0241
5341.00,1.0242
5340.00,1.0242
5339.00,1.0242
5338.00,1.0243
5337.00,1.0243
5336.00,1.0244
5335.00,1.0244
5334.00,1.0244
5333.00,1.0244
5332.00,1.0244
5331.00,1.0245
5330.00,1.0246
5329.00,1.0245
5328.00,1.0243
5327.00,1.0241
5326.00,1.0240
5325.00,1.0240
5324.00,1.0240
5323.00,1.0240
5322.00,1.0240
5321.00,1.0240
5320.00,1.0242
5319.00,1.0244
5318.00,1.0246
5317.00,1.0247
5316.00,1.0248
5315.00,1.0248
5314.00,1.0247
5313.00,1.0246
5312.00,1.0245
5311.00,1.0244
5310.00,1.0245
5309.00,1.0245
5308.00,1.0245
5307.00,1.0245
5306.00,1.0245
5305.00,1.0245
5304.00,1.0244
5303.00,1.0245
5302.00,1.0245
5301.00,1.0246
5300.00,1.0246
5299.00,1.0247
5298.00,1.0247
5297.00,1.0245
5296.00,1.0244
5295.00,1.0243
5294.00,1.0243
5293.00,1.0244
5292.00,1.0244
5291.00,1.0244
5290.00,1.0244
5289.00,1.0246
5288.00,1.0248
5287.00,1.0249
5286.00,1.0250
5285.00,1.0251
5284.00,1.0251
5283.00,1.0251
5282.00,1.0250
5281.00,1.0249
5280.00,1.0248
5279.00,1.0248
5278.00,1.0248
5277.00,1.0249
5276.00,1.0249
5275.00,1.0248
5274.00,1.0248
5273.00,1.0248
5272.00,1.0248
5271.00,1.0248
5270.00,1.0249
5269.00,1.0249
5268.00,1.0250
5267.00,1.0250
5266.00,1.0251
5265.00,1.0250
5264.00,1.0250
5263.00,1.0250
5262.00,1.0249
5261.00,1.0248
5260.00,1.0246
5259.00,1.0244
5258.00,1.0243
5257.00,1.0242
5256.00,1.0240
5255.00,1.0237
5254.00,1.0234
5253.00,1.0233
5252.00,1.0235
5251.00,1.0239
5250.00,1.0244
5249.00,1.0250
5248.00,1.0255
5247.00,1.0259
5246.00,1.0261
5245.00,1.0260
5244.00,1.0258
5243.00,1.0257
5242.00,1.0256
5241.00,1.0255
5240.00,1.0254
5239.00,1.0254
5238.00,1.0255
5237.00,1.0257
5236.00,1.0258
5235.00,1.0259
5234.00,1.0259
5233.00,1.0259
5232.00,1.0259
5231.00,1.0260
5230.00,1.0260
5229.00,1.0260
5228.00,1.0259
5227.00,1.0258
5226.00,1.0256
5225.00,1.0256
5224.00,1.0257
5223.00,1.0259
5222.00,1.0260
5221.00,1.0261
5220.00,1.0261
5219.00,1.0261
5218.00,1.0261
5217.00,1.0261
5216.00,1.0262
5215.00,1.0263
5214.00,1.0264
5213.00,1.0265
5212.00,1.0265
5211.00,1.0265
5210.00,1.0266
5209.00,1.0266
5208.00,1.0266
5207.00,1.0266
5206.00,1.0266
5205.00,1.0266
5204.00,1.0266
5203.00,1.0267
5202.00,1.0266
5201.00,1.0266
5200.00,1.0266
5199.00,1.0267
5198.00,1.0267
5197.00,1.0267
5196.00,1.0267
5195.00,1.0267
5194.00,1.0269
5193.00,1.0270
5192.00,1.0271
5191.00,1.0271
5190.00,1.0272
5189.00,1.0272
5188.00,1.0273
5187.00,1.0273
5186.00,1.0274
5185.00,1.0274
5184.00,1.0274
5183.00,1.0274
5182.00,1.0274
5181.00,1.0274
5180.00,1.0274
5179.00,1.0274
5178.00,1.0274
5177.00,1.0274
5176.00,1.0275
5175.00,1.0276
5174.00,1.0277
5173.00,1.0277
5172.00,1.0277
5171.00,1.0277
5170.00,1.0277
5169.00,1.0276
5168.00,1.0276
5167.00,1.0277
5166.00,1.0277
5165.00,1.0278
5164.00,1.0279
5163.00,1.0280
5162.00,1.0281
5161.00,1.0281
5160.00,1.0281
5159.00,1.0282
5158.00,1.0283
5157.00,1.0283
5156.00,1.0284
5155.00,1.0284
5154.00,1.0285
5153.00,1.0285
5152.00,1.0286
5151.00,1.0288
5150.00,1.0290
5149.00,1.0291
5148.00,1.0291
5147.00,1.0291
5146.00,1.0290
5145.00,1.0289
5144.00,1.0290
5143.00,1.0291
5142.00,1.0291
5141.00,1.0292
5140.00,1.0292
5139.00,1.0292
5138.00,1.0293
5137.00,1.0293
5136.00,1.0294
5135.00,1.0294
5134.00,1.0295
5133.00,1.0295
5132.00,1.0296
5131.00,1.0298
5130.00,1.0300
5129.00,1.0302
5128.00,1.0304
5127.00,1.0304
5126.00,1.0304
5125.00,1.0302
5124.00,1.0301
5123.00,1.0300
5122.00,1.0301
5121.00,1.0302
5120.00,1.0303
5119.00,1.0303
5118.00,1.0303
5117.00,1.0302
5116.00,1.0300
5115.00,1.0300
5114.00,1.0300
5113.00,1.0302
5112.00,1.0303
5111.00,1.0304
5110.00,1.0305
5109.00,1.0305
5108.00,1.0304
5107.00,1.0304
5106.00,1.0303
5105.00,1.0303
5104.00,1.0302
5103.00,1.0303
5102.00,1.0303
5101.00,1.0303
5100.00,1.0303
5099.00,1.0304
5098.00,1.0304
5097.00,1.0304
5096.00,1.0305
5095.00,1.0305
5094.00,1.0305
5093.00,1.0305
5092.00,1.0306
5091.00,1.0307
5090.00,1.0308
5089.00,1.0308
5088.00,1.0309
5087.00,1.0310
5086.00,1.0311
5085.00,1.0311
5084.00,1.0311
5083.00,1.0311
5082.00,1.0311
5081.00,1.0310
5080.00,1.0310
5079.00,1.0311
5078.00,1.0312
5077.00,1.0312
5076.00,1.0313
5075.00,1.0313
5074.00,1.0313
5073.00,1.0312
5072.00,1.0312
5071.00,1.0313
5070.00,1.0313
5069.00,1.0313
5068.00,1.0312
5067.00,1.0310
5066.00,1.0309
5065.00,1.0309
5064.00,1.0311
5063.00,1.0314
5062.00,1.0317
5061.00,1.0320
5060.00,1.0321
5059.00,1.0321
5058.00,1.0319
5057.00,1.0318
5056.00,1.0317
5055.00,1.0318
5054.00,1.0318
5053.00,1.0319
5052.00,1.0319
5051.00,1.0319
5050.00,1.0319
5049.00,1.0320
5048.00,1.0320
5047.00,1.0321
5046.00,1.0321
5045.00,1.0321
5044.00,1.0321
5043.00,1.0321
5042.00,1.0320
5041.00,1.0320
5040.00,1.0320
5039.00,1.0320
5038.00,1.0320
5037.00,1.0319
5036.00,1.0319
5035.00,1.0319
5034.00,1.0320
5033.00,1.0321
5032.00,1.0323
5031.00,1.0324
5030.00,1.0325
5029.00,1.0325
5028.00,1.0325
5027.00,1.0325
5026.00,1.0324
5025.00,1.0324
5024.00,1.0323
5023.00,1.0323
5022.00,1.0323
5021.00,1.0323
5020.00,1.0324
5019.00,1.0325
5018.00,1.0325
5017.00,1.0326
5016.00,1.0327
5015.00,1.0327
5014.00,1.0327
5013.00,1.0327
5012.00,1.0325
5011.00,1.0324
5010.00,1.0322
5009.00,1.0322
5008.00,1.0323
5007.00,1.0324
5006.00,1.0326
5005.00,1.0328
5004.00,1.0329
5003.00,1.0330
5002.00,1.0330
5001.00,1.0329
5000.00,1.0329
4999.00,1.0328
4998.00,1.0328
4997.00,1.0327
4996.00,1.0327
4995.00,1.0328
4994.00,1.0328
4993.00,1.0327
4992.00,1.0327
4991.00,1.0326
4990.00,1.0325
4989.00,1.0324
4988.00,1.0324
4987.00,1.0324
4986.00,1.0325
4985.00,1.0325
4984.00,1.0325
4983.00,1.0325
4982.00,1.0325
4981.00,1.0325
4980.00,1.0324
4979.00,1.0324
4978.00,1.0324
4977.00,1.0324
4976.00,1.0324
4975.00,1.0325
4974.00,1.0325
4973.00,1.0326
4972.00,1.0326
4971.00,1.0327
4970.00,1.0326
4969.00,1.0326
4968.00,1.0325
4967.00,1.0326
4966.00,1.0326
4965.00,1.0326
4964.00,1.0325
4963.00,1.0325
4962.00,1.0325
4961.00,1.0325
4960.00,1.0325
4959.00,1.0326
4958.00,1.0327
4957.00,1.0328
4956.00,1.0329
4955.00,1.0330
4954.00,1.0330
4953.00,1.0330
4952.00,1.0330
4951.00,1.0330
4950.00,1.0330
4949.00,1.0329
4948.00,1.0329
4947.00,1.0329
4946.00,1.0329
4945.00,1.0330
4944.00,1.0330
4943.00,1.0330
4942.00,1.0329
4941.00,1.0328
4940.00,1.0328
4939.00,1.0329
4938.00,1.0329
4937.00,1.0329
4936.00,1.0329
4935.00,1.0329
4934.00,1.0328
4933.00,1.0327
4932.00,1.0327
4931.00,1.0327
4930.00,1.0328
4929.00,1.0328
4928.00,1.0329
4927.00,1.0328
4926.00,1.0328
4925.00,1.0327
4924.00,1.0327
4923.00,1.0327
4922.00,1.0327
4921.00,1.0327
4920.00,1.0327
4919.00,1.0327
4918.00,1.0327
4917.00,1.0327
4916.00,1.0327
4915.00,1.0327
4914.00,1.0327
4913.00,1.0326
4912.00,1.0325
4911.00,1.0324
4910.00,1.0324
4909.00,1.0323
4908.00,1.0322
4907.00,1.0322
4906.00,1.0323
4905.00,1.0323
4904.00,1.0323
4903.00,1.0324
4902.00,1.0324
4901.00,1.0323
4900.00,1.0323
4899.00,1.0323
4898.00,1.0324
4897.00,1.0324
4896.00,1.0324
4895.00,1.0325
4894.00,1.0324
4893.00,1.0324
4892.00,1.0323
4891.00,1.0323
4890.00,1.0323
4889.00,1.0324
4888.00,1.0325
4887.00,1.0325
4886.00,1.0324
4885.00,1.0323
4884.00,1.0322
4883.00,1.0321
4882.00,1.0320
4881.00,1.0320
4880.00,1.0320
4879.00,1.0321
4878.00,1.0322
4877.00,1.0323
4876.00,1.0323
4875.00,1.0323
4874.00,1.0323
4873.00,1.0322
4872.00,1.0321
4871.00,1.0321
4870.00,1.0321
4869.00,1.0321
4868.00,1.0322
4867.00,1.0322
4866.00,1.0323
4865.00,1.0323
4864.00,1.0322
4863.00,1.0321
4862.00,1.0320
4861.00,1.0320
4860.00,1.0321
4859.00,1.0322
4858.00,1.0322
4857.00,1.0322
4856.00,1.0321
4855.00,1.0320
4854.00,1.0320
4853.00,1.0320
4852.00,1.0320
4851.00,1.0321
4850.00,1.0321
4849.00,1.0321
4848.00,1.0320
4847.00,1.0319
4846.00,1.0318
4845.00,1.0317
4844.00,1.0316
4843.00,1.0316
4842.00,1.0316
4841.00,1.0317
4840.00,1.0317
4839.00,1.0317
4838.00,1.0317
4837.00,1.0316
4836.00,1.0316
4835.00,1.0315
4834.00,1.0315
4833.00,1.0314
4832.00,1.0314
4831.00,1.0315
4830.00,1.0315
4829.00,1.0316
4828.00,1.0315
4827.00,1.0314
4826.00,1.0313
4825.00,1.0313
4824.00,1.0313
4823.00,1.0313
4822.00,1.0313
4821.00,1.0312
4820.00,1.0312
4819.00,1.0311
4818.00,1.0309
4817.00,1.0309
4816.00,1.0308
4815.00,1.0309
4814.00,1.0309
4813.00,1.0309
4812.00,1.0310
4811.00,1.0310
4810.00,1.0311
4809.00,1.0311
4808.00,1.0311
4807.00,1.0310
4806.00,1.0309
4805.00,1.0308
4804.00,1.0308
4803.00,1.0308
4802.00,1.0308
4801.00,1.0308
4800.00,1.0307
4799.00,1.0307
4798.00,1.0306
4797.00,1.0305
4796.00,1.0305
4795.00,1.0305
4794.00,1.0305
4793.00,1.0305
4792.00,1.0305
4791.00,1.0304
4790.00,1.0304
4789.00,1.0303
4788.00,1.0303
4787.00,1.0303
4786.00,1.0302
4785.00,1.0301
4784.00,1.0300
4783.00,1.0300
4782.00,1.0299
4781.00,1.0299
4780.00,1.0299
4779.00,1.0299
4778.00,1.0298
4777.00,1.0298
4776.00,1.0297
4775.00,1.0296
4774.00,1.0296
4773.00,1.0295
4772.00,1.0295
4771.00,1.0295
4770.00,1.0296
4769.00,1.0297
4768.00,1.0296
4767.00,1.0296
4766.00,1.0294
4765.00,1.0292
4764.00,1.0290
4763.00,1.0289
4762.00,1.0289
4761.00,1.0289
4760.00,1.0290
4759.00,1.0290
4758.00,1.0291
4757.00,1.0291
