Created as New Dataset,Sample 036 By Administrator Date Monday, February 10 2020
cm-1,A
6000.00,1.0724
5999.00,1.0727
5998.00,1.0729
5997.00,1.0728
5996.00,1.0728
5995.00,1.0728
5994.00,1.0727
5993.00,1.0725
5992.00,1.0724
5991.00,1.0724
5990.00,1.0723
5989.00,1.0721
5988.00,1.0720
5987.00,1.0719
5986.00,1.0718
5985.00,1.0716
5984.00,1.0714
5983.00,1.0712
5982.00,1.0709
5981.00,1.0707
5980.00,1.0707
5979.00,1.0706
5978.00,1.0704
5977.00,1.0702
5976.00,1.0698
5975.00,1.0696
5974.00,1.0694
5973.00,1.0693
5972.00,1.0693
5971.00,1.0694
5970.00,1.0696
5969.00,1.0697
5968.00,1.0700
5967.00,1.0703
5966.00,1.0706
5965.00,1.0708
5964.00,1.0711
5963.00,1.0714
5962.00,1.0716
5961.00,1.0716
5960.00,1.0717
5959.00,1.0719
5958.00,1.0720
5957.00,1.0720
5956.00,1.0719
5955.00,1.0717
5954.00,1.0715
5953.00,1.0714
5952.00,1.0714
5951.00,1.0715
5950.00,1.0716
5949.00,1.0716
5948.00,1.0717
5947.00,1.0717
5946.00,1.0716
5945.00,1.0714
5944.00,1.0712
5943.00,1.0710
5942.00,1.0708
5941.00,1.0706
5940.00,1.0704
5939.00,1.0703
5938.00,1.0702
5937.00,1.0702
5936.00,1.0701
5935.00,1.0701
5934.00,1.0700
5933.00,1.0700
5932.00,1.0700
5931.00,1.0700
5930.00,1.0700
5929.00,1.0700
5928.00,1.0700
5927.00,1.0700
5926.00,1.0700
5925.00,1.0699
5924.00,1.0698
5923.00,1.0700
5922.00,1.0702
5921.00,1.0703
5920.00,1.0705
5919.00,1.0706
5918.00,1.0707
5917.00,1.0708
5916.00,1.0710
5915.00,1.0713
5914.00,1.0716
5913.00,1.0718
5912.00,1.0720
5911.00,1.0722
5910.00,1.0724
5909.00,1.0724
5908.00,1.0723
5907.00,1.0722
5906.00,1.0720
5905.00,1.0718
5904.00,1.0716
5903.00,1.0714
5902.00,1.0713
5901.00,1.0713
5900.00,1.0713
5899.00,1.0714
5898.00,1.0713
5897.00,1.0712
5896.00,1.0711
5895.00,1.0710
5894.00,1.0709
5893.00,1.0708
5892.00,1.0706
5891.00,1.0704
5890.00,1.0702
5889.00,1.0701
5888.00,1.0699
5887.00,1.0699
5886.00,1.0700
5885.00,1.0701
5884.00,1.0701
5883.00,1.0701
5882.00,1.0700
5881.00,1.0699
5880.00,1.0698
5879.00,1.0699
5878.00,1.0699
5877.00,1.0699
5876.00,1.0699
5875.00,1.0699
5874.00,1.0699
5873.00,1.0700
5872.00,1.0701
5871.00,1.0701
5870.00,1.0702
5869.00,1.0704
5868.00,1.0705
5867.00,1.0706
5866.00,1.0708
5865.00,1.0710
5864.00,1.0712
5863.00,1.0714
5862.00,1.0715
5861.00,1.0715
5860.00,1.0714
5859.00,1.0714
5858.00,1.0713
5857.00,1.0713
5856.00,1.0713
5855.00,1.0713
5854.00,1.0712
5853.00,1.0710
5852.00,1.0708
5851.00,1.0705
5850.00,1.0703
5849.00,1.0700
5848.00,1.0698
5847.00,1.0697
5846.00,1.0696
5845.00,1.0696
5844.00,1.0696
5843.00,1.0697
5842.00,1.0698
5841.00,1.0698
5840.00,1.0697
5839.00,1.0696
5838.00,1.0695
5837.00,1.0695
5836.00,1.0695
5835.00,1.0696
5834.00,1.0697
5833.00,1.0698
5832.00,1.0699
5831.00,1.0700
5830.00,1.0701
5829.00,1.0702
5828.00,1.0704
5827.00,1.0707
5826.00,1.0710
5825.00,1.0712
5824.00,1.0713
5823.00,1.0715
5822.00,1.0715
5821.00,1.0716
5820.00,1.0716
5819.00,1.0716
5818.00,1.0715
5817.00,1.0714
5816.00,1.0714
5815.00,1.0713
5814.00,1.0713
5813.00,1.0712
5812.00,1.0712
5811.00,1.0713
5810.00,1.0713
5809.00,1.0712
5808.00,1.0710
5807.00,1.0707
5806.00,1.0704
5805.00,1.0700
5804.00,1.0698
5803.00,1.0696
5802.00,1.0696
5801.00,1.0695
5800.00,1.0695
5799.00,1.0696
5798.00,1.0696
5797.00,1.0696
5796.00,1.0697
5795.00,1.0698
5794.00,1.0699
5793.00,1.0700
5792.00,1.0701
5791.00,1.0702
5790.00,1.0702
5789.00,1.0700
5788.00,1.0698
5787.00,1.0696
5786.00,1.0695
5785.00,1.0694
5784.00,1.0695
5783.00,1.0698
5782.00,1.0701
5781.00,1.0704
5780.00,1.0708
5779.00,1.0712
5778.00,1.0715
5777.00,1.0716
5776.00,1.0715
5775.00,1.0714
5774.00,1.0711
5773.00,1.0708
5772.00,1.0705
5771.00,1.0705
5770.00,1.0706
5769.00,1.0710
5768.00,1.0714
5767.00,1.0717
5766.00,1.0718
5765.00,1.0717
5764.00,1.0715
5763.00,1.0713
5762.00,1.0711
5761.00,1.0708
5760.00,1.0705
5759.00,1.0703
5758.00,1.0701
5757.00,1.0699
5756.00,1.0697
5755.00,1.0696
5754.00,1.0694
5753.00,1.0693
5752.00,1.0692
5751.00,1.0692
5750.00,1.0691
5749.00,1.0691
5748.00,1.0691
5747.00,1.0691
5746.00,1.0691
5745.00,1.0690
5744.00,1.0690
5743.00,1.0690
5742.00,1.0691
5741.00,1.0693
5740.00,1.0694
5739.00,1.0696
5738.00,1.0698
5737.00,1.0699
5736.00,1.0701
5735.00,1.0703
5734.00,1.0705
5733.00,1.0707
5732.00,1.0709
5731.00,1.0711
5730.00,1.0711
5729.00,1.0710
5728.00,1.0709
5727.00,1.0707
5726.00,1.0706
5725.00,1.0706
5724.00,1.0705
5723.00,1.0705
5722.00,1.0705
5721.00,1.0705
5720.00,1.0704
5719.00,1.0705
5718.00,1.0704
5717.00,1.0704
5716.00,1.0702
5715.00,1.0700
5714.00,1.0698
5713.00,1.0695
5712.00,1.0692
5711.00,1.0691
5710.00,1.0691
5709.00,1.0691
5708.00,1.0691
5707.00,1.0691
5706.00,1.0691
5705.00,1.0691
5704.00,1.0692
5703.00,1.0693
5702.00,1.0694
5701.00,1.0695
5700.00,1.0695
5699.00,1.0695
5698.00,1.0695
5697.00,1.0695
5696.00,1.0696
5695.00,1.0698
5694.00,1.0700
5693.00,1.0702
5692.00,1.0703
5691.00,1.0704
5690.00,1.0705
5689.00,1.0705
5688.00,1.0706
5687.00,1.0707
5686.00,1.0709
5685.00,1.0710
5684.00,1.0710
5683.00,1.0709
5682.00,1.0708
5681.00,1.0706
5680.00,1.0705
5679.00,1.0704
5678.00,1.0703
5677.00,1.0704
5676.00,1.0704
5675.00,1.0703
5674.00,1.0702
5673.00,1.0700
5672.00,1.0698
5671.00,1.0697
5670.00,1.0695
5669.00,1.0692
5668.00,1.0690
5667.00,1.0689
5666.00,1.0688
5665.00,1.0688
5664.00,1.0689
5663.00,1.0691
5662.00,1.0692
5661.00,1.0693
5660.00,1.0694
5659.00,1.0695
5658.00,1.0695
5657.00,1.0695
5656.00,1.0695
5655.00,1.0695
5654.00,1.0694
5653.00,1.0693
5652.00,1.0692
5651.00,1.0693
5650.00,1.0695
5649.00,1.0697
5648.00,1.0700
5647.00,1.0702
5646.00,1.0703
5645.00,1.0704
5644.00,1.0704
5643.00,1.0705
5642.00,1.0705
5641.00,1.0705
5640.00,1.0706
5639.00,1.0706
5638.00,1.0707
5637.00,1.0707
5636.00,1.0707
5635.00,1.0707
5634.00,1.0706
5633.00,1.0704
5632.00,1.0704
5631.00,1.0703
5630.00,1.0703
5629.00,1.0703
5628.00,1.0702
5627.00,1.0701
5626.00,1.0700
5625.00,1.0698
5624.00,1.0695
5623.00,1.0694
5622.00,1.0692
5621.00,1.0691
5620.00,1.0689
5619.00,1.0688
5618.00,1.0688
5617.00,1.0687
5616.00,1.0687
5615.00,1.0687
5614.00,1.0686
5613.00,1.0686
5612.00,1.0686
5611.00,1.0687
5610.00,1.0688
5609.00,1.0690
5608.00,1.0692
5607.00,1.0694
5606.00,1.0695
5605.00,1.0696
5604.00,1.0696
5603.00,1.0698
5602.00,1.0699
5601.00,1.0700
5600.00,1.0702
5599.00,1.0702
5598.00,1.0703
5597.00,1.0703
5596.00,1.0704
5595.00,1.0706
5594.00,1.0707
5593.00,1.0708
5592.00,1.0709
5591.00,1.0708
5590.00,1.0707
5589.00,1.0705
5588.00,1.0703
5587.00,1.0702
5586.00,1.0701
5585.00,1.0699
5584.00,1.0697
5583.00,1.0695
5582.00,1.0693
5581.00,1.0691
5580.00,1.0690
5579.00,1.0690
5578.00,1.0690
5577.00,1.0690
5576.00,1.0691
5575.00,1.0692
5574.00,1.0693
5573.00,1.0693
5572.00,1.0692
5571.00,1.0691
5570.00,1.0690
5569.00,1.0688
5568.00,1.0688
5567.00,1.0688
5566.00,1.0689
5565.00,1.0691
5564.00,1.0692
5563.00,1.0694
5562.00,1.0696
5561.00,1.0698
5560.00,1.0700
5559.00,1.0701
5558.00,1.0702
5557.00,1.0701
5556.00,1.0699
5555.00,1.0697
5554.00,1.0696
5553.00,1.0695
5552.00,1.0695
5551.00,1.0696
5550.00,1.0696
5549.00,1.0697
5548.00,1.0698
5547.00,1.0699
5546.00,1.0700
5545.00,1.0700
5544.00,1.0700
5543.00,1.0701
5542.00,1.0700
5541.00,1.0700
5540.00,1.0699
5539.00,1.0698
5538.00,1.0697
5537.00,1.0696
5536.00,1.0694
5535.00,1.0693
5534.00,1.0694
5533.00,1.0694
5532.00,1.0695
5531.00,1.0695
5530.00,1.0694
5529.00,1.0693
5528.00,1.0692
5527.00,1.0691
5526.00,1.0690
5525.00,1.0689
5524.00,1.0689
5523.00,1.0688
5522.00,1.0687
5521.00,1.0686
5520.00,1.0687
5519.00,1.0689
5518.00,1.0691
5517.00,1.0692
5516.00,1.0694
5515.00,1.0695
5514.00,1.0696
5513.00,1.0697
5512.00,1.0698
5511.00,1.0699
5510.00,1.0699
5509.00,1.0698
5508.00,1.0697
5507.00,1.0696
5506.00,1.0696
5505.00,1.0696
5504.00,1.0697
5503.00,1.0698
5502.00,1.0699
5501.00,1.0699
5500.00,1.0698
5499.00,1.0698
5498.00,1.0697
5497.00,1.0696
5496.00,1.0695
5495.00,1.0694
5494.00,1.0693
5493.00,1.0691
5492.00,1.0690
5491.00,1.0690
5490.00,1.0688
5489.00,1.0686
5488.00,1.0684
5487.00,1.0683
5486.00,1.0683
5485.00,1.0683
5484.00,1.0685
5483.00,1.0686
5482.00,1.0687
5481.00,1.0686
5480.00,1.0686
5479.00,1.0686
5478.00,1.0687
5477.00,1.0688
5476.00,1.0688
5475.00,1.0688
5474.00,1.0688
5473.00,1.0689
5472.00,1.0689
5471.00,1.0691
5470.00,1.0692
5469.00,1.0693
5468.00,1.0693
5467.00,1.0694
5466.00,1.0694
5465.00,1.0694
5464.00,1.0695
5463.00,1.0695
5462.00,1.0695
5461.00,1.0694
5460.00,1.0694
5459.00,1.0693
5458.00,1.0693
5457.00,1.0694
5456.00,1.0696
5455.00,1.0697
5454.00,1.0698
5453.00,1.0699
5452.00,1.0697
5451.00,1.0694
5450.00,1.0690
5449.00,1.0686
5448.00,1.0684
5447.00,1.0683
5446.00,1.0681
5445.00,1.0681
5444.00,1.0682
5443.00,1.0683
5442.00,1.0683
5441.00,1.0682
5440.00,1.0681
5439.00,1.0682
5438.00,1.0683
5437.00,1.0682
5436.00,1.0681
5435.00,1.0680
5434.00,1.0680
5433.00,1.0680
5432.00,1.0682
5431.00,1.0683
5430.00,1.0684
5429.00,1.0684
5428.00,1.0685
5427.00,1.0687
5426.00,1.0688
5425.00,1.0690
5424.00,1.0691
5423.00,1.0692
5422.00,1.0693
5421.00,1.0692
5420.00,1.0691
5419.00,1.0690
5418.00,1.0689
5417.00,1.0689
5416.00,1.0689
5415.00,1.0690
5414.00,1.0691
5413.00,1.0692
5412.00,1.0692
5411.00,1.0693
5410.00,1.0693
5409.00,1.0694
5408.00,1.0695
5407.00,1.0697
5406.00,1.0697
5405.00,1.0695
5404.00,1.0694
5403.00,1.0692
5402.00,1.0691
5401.00,1.0690
5400.00,1.0689
5399.00,1.0688
5398.00,1.0686
5397.00,1.0684
5396.00,1.0683
5395.00,1.0682
5394.00,1.0681
5393.00,1.0680
5392.00,1.0680
5391.00,1.0680
5390.00,1.0680
5389.00,1.0679
5388.00,1.0679
5387.00,1.0680
5386.00,1.0680
5385.00,1.0681
5384.00,1.0682
5383.00,1.0682
5382.00,1.0682
5381.00,1.0683
5380.00,1.0684
5379.00,1.0686
5378.00,1.0687
5377.00,1.0688
5376.00,1.0690
5375.00,1.0691
5374.00,1.0692
5373.00,1.0693
5372.00,1.0693
5371.00,1.0694
5370.00,1.0694
5369.00,1.0693
5368.00,1.0693
5367.00,1.0692
5366.00,1.0692
5365.00,1.0692
5364.00,1.0691
5363.00,1.0691
5362.00,1.0691
5361.00,1.0690
5360.00,1.0689
5359.00,1.0689
5358.00,1.0688
5357.00,1.0687
5356.00,1.0685
5355.00,1.0684
5354.00,1.0683
5353.00,1.0681
5352.00,1.0681
5351.00,1.0680
5350.00,1.0679
5349.00,1.0678
5348.00,1.0678
5347.00,1.0680
5346.00,1.0680
5345.00,1.0680
5344.00,1.0679
5343.00,1.0680
5342.00,1.0682
5341.00,1.0683
5340.00,1.0682
5339.00,1.0682
5338.00,1.0681
5337.00,1.0682
5336.00,1.0683
5335.00,1.0685
5334.00,1.0687
5333.00,1.0689
5332.00,1.0690
5331.00,1.0692
5330.00,1.0693
5329.00,1.0693
5328.00,1.0693
5327.00,1.0692
5326.00,1.0693
5325.00,1.0693
5324.00,1.0694
5323.00,1.0695
5322.00,1.0696
5321.00,1.0696
5320.00,1.0697
5319.00,1.0697
5318.00,1.0696
5317.00,1.0696
5316.00,1.0695
5315.00,1.0694
5314.00,1.0693
5313.00,1.0691
5312.00,1.0690
5311.00,1.0689
5310.00,1.0689
5309.00,1.0688
5308.00,1.0688
5307.00,1.0687
5306.00,1.0687
5305.00,1.0688
5304.00,1.0688
5303.00,1.0688
5302.00,1.0688
5301.00,1.0688
5300.00,1.0688
5299.00,1.0689
5298.00,1.0689
5297.00,1.0689
5296.00,1.0689
5295.00,1.0689
5294.00,1.0689
5293.00,1.0690
5292.00,1.0691
5291.00,1.0692
5290.00,1.0693
5289.00,1.0695
5288.00,1.0696
5287.00,1.0696
5286.00,1.0696
5285.00,1.0696
5284.00,1.0697
5283.00,1.0698
5282.00,1.0699
5281.00,1.0699
5280.00,1.0699
5279.00,1.0700
5278.00,1.0700
5277.00,1.0701
5276.00,1.0702
5275.00,1.0703
5274.00,1.0704
5273.00,1.0704
5272.00,1.0703
5271.00,1.0702
5270.00,1.0699
5269.00,1.0697
5268.00,1.0695
5267.00,1.0694
5266.00,1.0693
5265.00,1.0692
5264.00,1.0692
5263.00,1.0692
5262.00,1.0693
5261.00,1.0693
5260.00,1.0693
5259.00,1.0693
5258.00,1.0693
5257.00,1.0694
5256.00,1.0694
5255.00,1.0695
5254.00,1.0695
5253.00,1.0695
5252.00,1.0695
5251.00,1.0696
5250.00,1.0695
5249.00,1.0695
5248.00,1.0697
5247.00,1.0699
5246.00,1.0700
5245.00,1.0702
5244.00,1.0703
5243.00,1.0704
5242.00,1.0706
5241.00,1.0707
5240.00,1.0708
5239.00,1.0710
5238.00,1.0711
5237.00,1.0712
5236.00,1.0713
5235.00,1.0714
5234.00,1.0715
5233.00,1.0715
5232.00,1.0714
5231.00,1.0714
5230.00,1.0713
5229.00,1.0713
5228.00,1.0714
5227.00,1.0714
5226.00,1.0714
5225.00,1.0713
5224.00,1.0713
5223.00,1.0714
5222.00,1.0714
5221.00,1.0714
5220.00,1.0714
5219.00,1.0713
5218.00,1.0712
5217.00,1.0711
5216.00,1.0709
5215.00,1.0709
5214.00,1.0709
5213.00,1.0709
5212.00,1.0709
5211.00,1.0709
5210.00,1.0709
5209.00,1.0709
5208.00,1.0710
5207.00,1.0711
5206.00,1.0712
5205.00,1.0713
5204.00,1.0715
5203.00,1.0717
5202.00,1.0719
5201.00,1.0720
5200.00,1.0723
5199.00,1.0725
5198.00,1.0726
5197.00,1.0727
5196.00,1.0727
5195.00,1.0728
5194.00,1.0729
5193.00,1.0730
5192.00,1.0731
5191.00,1.0732
5190.00,1.0732
5189.00,1.0731
5188.00,1.0731
5187.00,1.0730
5186.00,1.0730
5185.00,1.0729
5184.00,1.0730
5183.00,1.0732
5182.00,1.0733
5181.00,1.0733
5180.00,1.0734
5179.00,1.0735
5178.00,1.0735
5177.00,1.0735
5176.00,1.0735
5175.00,1.0735
5174.00,1.0734
5173.00,1.0734
5172.00,1.0733
5171.00,1.0733
5170.00,1.0732
5169.00,1.0732
5168.00,1.0732
5167.00,1.0733
5166.00,1.0733
5165.00,1.0733
5164.00,1.0733
5163.00,1.0734
5162.00,1.0735
5161.00,1.0736
5160.00,1.0737
5159.00,1.0739
5158.00,1.0739
5157.00,1.0740
5156.00,1.0740
5155.00,1.0741
5154.00,1.0742
5153.00,1.0744
5152.00,1.0745
5151.00,1.0746
5150.00,1.0747
5149.00,1.0748
5148.00,1.0749
5147.00,1.0750
5146.00,1.0751
5145.00,1.0753
5144.00,1.0754
5143.00,1.0755
5142.00,1.0756
5141.00,1.0757
5140.00,1.0758
5139.00,1.0759
5138.00,1.0759
5137.00,1.0757
5136.00,1.0756
5135.00,1.0754
5134.00,1.0752
5133.00,1.0752
5132.00,1.0752
5131.00,1.0752
5130.00,1.0753
5129.00,1.0753
5128.00,1.0753
5127.00,1.0753
5126.00,1.0753
5125.00,1.0753
5124.00,1.0753
5123.00,1.0753
5122.00,1.0753
5121.00,1.0752
5120.00,1.0751
5119.00,1.0751
5118.00,1.0751
5117.00,1.0751
5116.00,1.0752
5115.00,1.0753
5114.00,1.0753
5113.00,1.0754
5112.00,1.0756
5111.00,1.0758
5110.00,1.0759
5109.00,1.0761
5108.00,1.0762
5107.00,1.0764
5106.00,1.0765
5105.00,1.0766
5104.00,1.0767
5103.00,1.0768
5102.00,1.0768
5101.00,1.0768
5100.00,1.0768
5099.00,1.0768
5098.00,1.0768
5097.00,1.0768
5096.00,1.0769
5095.00,1.0769
5094.00,1.0769
5093.00,1.0768
5092.00,1.0768
5091.00,1.0767
5090.00,1.0766
5089.00,1.0766
5088.00,1.0765
5087.00,1.0765
5086.00,1.0764
5085.00,1.0763
5084.00,1.0763
5083.00,1.0763
5082.00,1.0763
5081.00,1.0763
5080.00,1.0762
5079.00,1.0761
5078.00,1.0761
5077.00,1.0761
5076.00,1.0761
5075.00,1.0761
5074.00,1.0762
5073.00,1.0762
5072.00,1.0762
5071.00,1.0762
5070.00,1.0763
5069.00,1.0763
5068.00,1.0764
5067.00,1.0766
5066.00,1.0767
5065.00,1.0769
5064.00,1.0770
5063.00,1.0771
5062.00,1.0772
5061.00,1.0772
5060.00,1.0772
5059.00,1.0773
5058.00,1.0773
5057.00,1.0774
5056.00,1.0775
5055.00,1.0777
5054.00,1.0778
5053.00,1.0778
5052.00,1.0778
5051.00,1.0777
5050.00,1.0777
5049.00,1.0777
5048.00,1.0777
5047.00,1.0777
5046.00,1.0776
5045.00,1.0776
5044.00,1.0776
5043.00,1.0775
5042.00,1.0774
5041.00,1.0773
5040.00,1.0772
5039.00,1.0772
5038.00,1.0771
5037.00,1.0771
5036.00,1.0770
5035.00,1.0770
5034.00,1.0770
5033.00,1.0769
5032.00,1.0767
5031.00,1.0766
5030.00,1.0766
5029.00,1.0766
5028.00,1.0766
5027.00,1.0767
5026.00,1.0768
5025.00,1.0769
5024.00,1.0770
5023.00,1.0772
5022.00,1.0773
5021.00,1.0773
5020.00,1.0773
5019.00,1.0774
5018.00,1.0774
5017.00,1.0775
5016.00,1.0775
5015.00,1.0776
5014.00,1.0777
5013.00,1.0777
5012.00,1.0777
5011.00,1.0778
5010.00,1.0779
5009.00,1.0780
5008.00,1.0781
5007.00,1.0782
5006.00,1.0782
5005.00,1.0782
5004.00,1.0781
5003.00,1.0781
5002.00,1.0780
5001.00,1.0780
5000.00,1.0779
4999.00,1.0779
4998.00,1.0778
4997.00,1.0776
4996.00,1.0775
4995.00,1.0774
4994.00,1.0773
4993.00,1.0772
4992.00,1.0772
4991.00,1.0772
4990.00,1.0771
4989.00,1.0770
4988.00,1.0769
4987.00,1.0768
4986.00,1.0767
4985.00,1.0767
4984.00,1.0766
4983.00,1.0767
4982.00,1.0767
4981.00,1.0768
4980.00,1.0768
4979.00,1.0769
4978.00,1.0770
4977.00,1.0770
4976.00,1.0770
4975.00,1.0771
4974.00,1.0772
4973.00,1.0774
4972.00,1.0776
4971.00,1.0777
4970.00,1.0778
4969.00,1.0778
4968.00,1.0778
4967.00,1.0778
4966.00,1.0778
4965.00,1.0778
4964.00,1.0777
4963.00,1.0777
4962.00,1.0777
4961.00,1.0776
4960.00,1.0776
4959.00,1.0776
4958.00,1.0776
4957.00,1.0776
4956.00,1.0776
4955.00,1.0775
4954.00,1.0774
4953.00,1.0773
4952.00,1.0773
4951.00,1.0773
4950.00,1.0773
4949.00,1.0773
4948.00,1.0772
4947.00,1.0772
4946.00,1.0771
4945.00,1.0769
4944.00,1.0768
4943.00,1.0767
4942.00,1.0766
4941.00,1.0765
4940.00,1.0766
4939.00,1.0766
4938.00,1.0767
4937.00,1.0768
4936.00,1.0768
4935.00,1.0768
4934.00,1.0768
4933.00,1.0768
4932.00,1.0769
4931.00,1.0770
4930.00,1.0771
4929.00,1.0772
4928.00,1.0773
4927.00,1.0774
4926.00,1.0775
4925.00,1.0775
4924.00,1.0775
4923.00,1.0776
4922.00,1.0776
4921.00,1.0777
4920.00,1.0777
4919.00,1.0778
4918.00,1.0778
4917.00,1.0777
4916.00,1.0777
4915.00,1.0776
4914.00,1.0775
4913.00,1.0775
4912.00,1.0774
4911.00,1.0773
4910.00,1.0772
4909.00,1.0771
4908.00,1.0770
4907.00,1.0770
4906.00,1.0770
4905.00,1.0770
4904.00,1.0769
4903.00,1.0768
4902.00,1.0767
4901.00,1.0765
4900.00,1.0765
4899.00,1.0765
4898.00,1.0764
4897.00,1.0764
4896.00,1.0763
4895.00,1.0762
4894.00,1.0761
4893.00,1.0761
4892.00,1.0761
4891.00,1.0762
4890.00,1.0763
4889.00,1.0763
4888.00,1.0763
4887.00,1.0764
4886.00,1.0764
4885.00,1.0764
4884.00,1.0765
4883.00,1.0766
4882.00,1.0768
4881.00,1.0768
4880.00,1.0768
4879.00,1.0768
4878.00,1.0769
4877.00,1.0769
4876.00,1.0769
4875.00,1.0770
4874.00,1.0770
4873.00,1.0770
4872.00,1.0769
4871.00,1.0768
4870.00,1.0768
4869.00,1.0767
4868.00,1.0767
4867.00,1.0766
4866.00,1.0764
4865.00,1.0763
4864.00,1.0762
4863.00,1.0762
4862.00,1.0762
4861.00,1.0761
4860.00,1.0761
4859.00,1.0761
4858.00,1.0760
4857.00,1.0760
4856.00,1.0759
4855.00,1.0758
4854.00,1.0757
4853.00,1.0757
4852.00,1.0757
4851.00,1.0757
4850.00,1.0757
4849.00,1.0756
4848.00,1.0756
4847.00,1.0756
4846.00,1.0756
4845.00,1.0756
4844.00,1.0757
4843.00,1.0757
4842.00,1.0758
4841.00,1.0758
4840.00,1.0758
4839.00,1.0758
4838.00,1.0758
4837.00,1.0758
4836.00,1.0758
4835.00,1.0759
4834.00,1.0760
4833.00,1.0761
4832.00,1.0762
4831.00,1.0762
4830.00,1.0763
4829.00,1.0763
4828.00,1.0762
4827.00,1.0762
4826.00,1.0761
4825.00,1.0759
4824.00,1.0758
4823.00,1.0757
4822.00,1.0756
4821.00,1.0755
4820.00,1.0755
4819.00,1.0755
4818.00,1.0754
4817.00,1.0754
4816.00,1.0753
4815.00,1.0752
4814.00,1.0752
4813.00,1.0750
4812.00,1.0749
4811.00,1.0748
4810.00,1.0746
4809.00,1.0746
4808.00,1.0745
4807.00,1.0745
4806.00,1.0745
4805.00,1.0745
4804.00,1.0744
4803.00,1.0744
4802.00,1.0744
4801.00,1.0744
4800.00,1.0744
4799.00,1.0744
4798.00,1.0744
4797.00,1.0744
4796.00,1.0745
4795.00,1.0745
4794.00,1.0745
4793.00,1.0745
4792.00,1.0745
4791.00,1.0744
4790.00,1.0744
4789.00,1.0744
4788.00,1.0744
4787.00,1.0744
4786.00,1.0744
4785.00,1.0745
4784.00,1.0745
4783.00,1.0746
4782.00,1.0746
4781.00,1.0746
4780.00,1.0746
4779.00,1.0745
4778.00,1.0744
4777.00,1.0743
4776.00,1.0741
4775.00,1.0740
4774.00,1.0739
4773.00,1.0738
4772.00,1.0737
4771.00,1.0736
4770.00,1.0735
4769.00,1.0733
4768.00,1.0733
4767.00,1.0732
4766.00,1.0732
4765.00,1.0731
4764.00,1.0731
4763.00,1.0730
4762.00,1.0729
4761.00,1.0728
4760.00,1.0728
4759.00,1.0728
4758.00,1.0729
4757.00,1.0729
