Created as New Dataset,Sample 031 By Administrator Date Monday, February 10 2020
cm-1,A
6000.00,1.1413
5999.00,1.1413
5998.00,1.1413
5997.00,1.1413
5996.00,1.1413
5995.00,1.1414
5994.00,1.1414
5993.00,1.1414
5992.00,1.1413
5991.00,1.1413
5990.00,1.1413
5989.00,1.1412
5988.00,1.1411
5987.00,1.1411
5986.00,1.1411
5985.00,1.1411
5984.00,1.1411
5983.00,1.1411
5982.00,1.1411
5981.00,1.1410
5980.00,1.1409
5979.00,1.1409
5978.00,1.1409
5977.00,1.1409
5976.00,1.1409
5975.00,1.1409
5974.00,1.1409
5973.00,1.1409
5972.00,1.1409
5971.00,1.1409
5970.00,1.1409
5969.00,1.1409
5968.00,1.1410
5967.00,1.1412
5966.00,1.1412
5965.00,1.1412
5964.00,1.1412
5963.00,1.1411
5962.00,1.1409
5961.00,1.1408
5960.00,1.1407
5959.00,1.1407
5958.00,1.1406
5957.00,1.1406
5956.00,1.1406
5955.00,1.1407
5954.00,1.1406
5953.00,1.1405
5952.00,1.1405
5951.00,1.1405
5950.00,1.1405
5949.00,1.1406
5948.00,1.1406
5947.00,1.1407
5946.00,1.1406
5945.00,1.1405
5944.00,1.1404
5943.00,1.1404
5942.00,1.1404
5941.00,1.1405
5940.00,1.1405
5939.00,1.1406
5938.00,1.1406
5937.00,1.1406
5936.00,1.1406
5935.00,1.1405
5934.00,1.1404
5933.00,1.1402
5932.00,1.1402
5931.00,1.1402
5930.00,1.1401
5929.00,1.1401
5928.00,1.1401
5927.00,1.1402
5926.00,1.1402
5925.00,1.1403
5924.00,1.1403
5923.00,1.1404
5922.00,1.1405
5921.00,1.1405
5920.00,1.1405
5919.00,1.1405
5918.00,1.1404
5917.00,1.1403
5916.00,1.1402
5915.00,1.1403
5914.00,1.1403
5913.00,1.1403
5912.00,1.1404
5911.00,1.1405
5910.00,1.1405
5909.00,1.1404
5908.00,1.1403
5907.00,1.1402
5906.00,1.1402
5905.00,1.1402
5904.00,1.1402
5903.00,1.1402
5902.00,1.1402
5901.00,1.1402
5900.00,1.1402
5899.00,1.1402
5898.00,1.1402
5897.00,1.1402
5896.00,1.1402
5895.00,1.1403
5894.00,1.1403
5893.00,1.1403
5892.00,1.1402
5891.00,1.1402
5890.00,1.1401
5889.00,1.1399
5888.00,1.1398
5887.00,1.1397
5886.00,1.1396
5885.00,1.1396
5884.00,1.1397
5883.00,1.1398
5882.00,1.1399
5881.00,1.1400
5880.00,1.1400
5879.00,1.1401
5878.00,1.1400
5877.00,1.1399
5876.00,1.1399
5875.00,1.1398
5874.00,1.1398
5873.00,1.1398
5872.00,1.1398
5871.00,1.1399
5870.00,1.1399
5869.00,1.1399
5868.00,1.1398
5867.00,1.1397
5866.00,1.1395
5865.00,1.1393
5864.00,1.1391
5863.00,1.1391
5862.00,1.1392
5861.00,1.1393
5860.00,1.1393
5859.00,1.1394
5858.00,1.1394
5857.00,1.1395
5856.00,1.1395
5855.00,1.1395
5854.00,1.1396
5853.00,1.1396
5852.00,1.1397
5851.00,1.1397
5850.00,1.1396
5849.00,1.1395
5848.00,1.1394
5847.00,1.1393
5846.00,1.1393
5845.00,1.1393
5844.00,1.1394
5843.00,1.1395
5842.00,1.1395
5841.00,1.1395
5840.00,1.1396
5839.00,1.1397
5838.00,1.1397
5837.00,1.1396
5836.00,1.1396
5835.00,1.1396
5834.00,1.1395
5833.00,1.1394
5832.00,1.1394
5831.00,1.1394
5830.00,1.1395
5829.00,1.1395
5828.00,1.1396
5827.00,1.1397
5826.00,1.1397
5825.00,1.1396
5824.00,1.1396
5823.00,1.1396
5822.00,1.1396
5821.00,1.1396
5820.00,1.1396
5819.00,1.1396
5818.00,1.1396
5817.00,1.1395
5816.00,1.1394
5815.00,1.1394
5814.00,1.1394
5813.00,1.1393
5812.00,1.1393
5811.00,1.1393
5810.00,1.1393
5809.00,1.1394
5808.00,1.1395
5807.00,1.1395
5806.00,1.1396
5805.00,1.1396
5804.00,1.1397
5803.00,1.1397
5802.00,1.1397
5801.00,1.1396
5800.00,1.1396
5799.00,1.1396
5798.00,1.1396
5797.00,1.1395
5796.00,1.1394
5795.00,1.1394
5794.00,1.1393
5793.00,1.1392
5792.00,1.1393
5791.00,1.1393
5790.00,1.1394
5789.00,1.1395
5788.00,1.1395
5787.00,1.1395
5786.00,1.1395
5785.00,1.1395
5784.00,1.1394
5783.00,1.1393
5782.00,1.1392
5781.00,1.1392
5780.00,1.1393
5779.00,1.1393
5778.00,1.1393
5777.00,1.1393
5776.00,1.1392
5775.00,1.1392
5774.00,1.1391
5773.00,1.1390
5772.00,1.1390
5771.00,1.1390
5770.00,1.1391
5769.00,1.1392
5768.00,1.1393
5767.00,1.1394
5766.00,1.1394
5765.00,1.1393
5764.00,1.1392
5763.00,1.1391
5762.00,1.1390
5761.00,1.1390
5760.00,1.1390
5759.00,1.1390
5758.00,1.1390
5757.00,1.1389
5756.00,1.1389
5755.00,1.1388
5754.00,1.1388
5753.00,1.1388
5752.00,1.1389
5751.00,1.1391
5750.00,1.1392
5749.00,1.1392
5748.00,1.1393
5747.00,1.1393
5746.00,1.1393
5745.00,1.1393
5744.00,1.1392
5743.00,1.1392
5742.00,1.1392
5741.00,1.1391
5740.00,1.1391
5739.00,1.1391
5738.00,1.1391
5737.00,1.1391
5736.00,1.1391
5735.00,1.1391
5734.00,1.1392
5733.00,1.1392
5732.00,1.1391
5731.00,1.1391
5730.00,1.1390
5729.00,1.1388
5728.00,1.1387
5727.00,1.1387
5726.00,1.1387
5725.00,1.1388
5724.00,1.1388
5723.00,1.1388
5722.00,1.1388
5721.00,1.1387
5720.00,1.1386
5719.00,1.1386
5718.00,1.1385
5717.00,1.1386
5716.00,1.1386
5715.00,1.1387
5714.00,1.1388
5713.00,1.1388
5712.00,1.1387
5711.00,1.1387
5710.00,1.1386
5709.00,1.1386
5708.00,1.1386
5707.00,1.1386
5706.00,1.1387
5705.00,1.1387
5704.00,1.1387
5703.00,1.1387
5702.00,1.1387
5701.00,1.1386
5700.00,1.1385
5699.00,1.1385
5698.00,1.1385
5697.00,1.1384
5696.00,1.1385
5695.00,1.1386
5694.00,1.1387
5693.00,1.1388
5692.00,1.1389
5691.00,1.1390
5690.00,1.1390
5689.00,1.1389
5688.00,1.1388
5687.00,1.1388
5686.00,1.1387
5685.00,1.1387
5684.00,1.1387
5683.00,1.1387
5682.00,1.1387
5681.00,1.1386
5680.00,1.1386
5679.00,1.1386
5678.00,1.1386
5677.00,1.1386
5676.00,1.1386
5675.00,1.1385
5674.00,1.1384
5673.00,1.1383
5672.00,1.1383
5671.00,1.1383
5670.00,1.1384
5669.00,1.1385
5668.00,1.1387
5667.00,1.1388
5666.00,1.1388
5665.00,1.1387
5664.00,1.1386
5663.00,1.1385
5662.00,1.1384
5661.00,1.1384
5660.00,1.1383
5659.00,1.1384
5658.00,1.1384
5657.00,1.1383
5656.00,1.1384
5655.00,1.1384
5654.00,1.1384
5653.00,1.1385
5652.00,1.1385
5651.00,1.1386
5650.00,1.1387
5649.00,1.1387
5648.00,1.1388
5647.00,1.1388
5646.00,1.1388
5645.00,1.1388
5644.00,1.1387
5643.00,1.1387
5642.00,1.1386
5641.00,1.1385
5640.00,1.1385
5639.00,1.1385
5638.00,1.1385
5637.00,1.1385
5636.00,1.1385
5635.00,1.1386
5634.00,1.1386
5633.00,1.1385
5632.00,1.1385
5631.00,1.1385
5630.00,1.1384
5629.00,1.1383
5628.00,1.1382
5627.00,1.1382
5626.00,1.1382
5625.00,1.1383
5624.00,1.1383
5623.00,1.1384
5622.00,1.1384
5621.00,1.1384
5620.00,1.1384
5619.00,1.1384
5618.00,1.1384
5617.00,1.1383
5616.00,1.1382
5615.00,1.1382
5614.00,1.1382
5613.00,1.1382
5612.00,1.1381
5611.00,1.1382
5610.00,1.1382
5609.00,1.1382
5608.00,1.1382
5607.00,1.1383
5606.00,1.1384
5605.00,1.1384
5604.00,1.1384
5603.00,1.1384
5602.00,1.1383
5601.00,1.1383
5600.00,1.1382
5599.00,1.1382
5598.00,1.1382
5597.00,1.1382
5596.00,1.1383
5595.00,1.1383
5594.00,1.1383
5593.00,1.1383
5592.00,1.1382
5591.00,1.1382
5590.00,1.1381
5589.00,1.1381
5588.00,1.1381
5587.00,1.1382
5586.00,1.1382
5585.00,1.1382
5584.00,1.1382
5583.00,1.1382
5582.00,1.1382
5581.00,1.1381
5580.00,1.1381
5579.00,1.1382
5578.00,1.1382
5577.00,1.1382
5576.00,1.1381
5575.00,1.1381
5574.00,1.1381
5573.00,1.1381
5572.00,1.1381
5571.00,1.1380
5570.00,1.1380
5569.00,1.1379
5568.00,1.1378
5567.00,1.1379
5566.00,1.1379
5565.00,1.1379
5564.00,1.1380
5563.00,1.1380
5562.00,1.1380
5561.00,1.1381
5560.00,1.1381
5559.00,1.1382
5558.00,1.1382
5557.00,1.1382
5556.00,1.1381
5555.00,1.1381
5554.00,1.1380
5553.00,1.1379
5552.00,1.1378
5551.00,1.1377
5550.00,1.1377
5549.00,1.1377
5548.00,1.1377
5547.00,1.1378
5546.00,1.1379
5545.00,1.1379
5544.00,1.1379
5543.00,1.1379
5542.00,1.1379
5541.00,1.1379
5540.00,1.1380
5539.00,1.1380
5538.00,1.1380
5537.00,1.1380
5536.00,1.1380
5535.00,1.1380
5534.00,1.1381
5533.00,1.1381
5532.00,1.1381
5531.00,1.1380
5530.00,1.1379
5529.00,1.1378
5528.00,1.1378
5527.00,1.1378
5526.00,1.1379
5525.00,1.1379
5524.00,1.1379
5523.00,1.1379
5522.00,1.1379
5521.00,1.1379
5520.00,1.1380
5519.00,1.1380
5518.00,1.1380
5517.00,1.1379
5516.00,1.1378
5515.00,1.1378
5514.00,1.1377
5513.00,1.1376
5512.00,1.1376
5511.00,1.1377
5510.00,1.1378
5509.00,1.1378
5508.00,1.1378
5507.00,1.1378
5506.00,1.1378
5505.00,1.1377
5504.00,1.1376
5503.00,1.1376
5502.00,1.1376
5501.00,1.1375
5500.00,1.1375
5499.00,1.1375
5498.00,1.1375
5497.00,1.1376
5496.00,1.1376
5495.00,1.1376
5494.00,1.1375
5493.00,1.1375
5492.00,1.1375
5491.00,1.1375
5490.00,1.1375
5489.00,1.1375
5488.00,1.1376
5487.00,1.1376
5486.00,1.1376
5485.00,1.1376
5484.00,1.1375
5483.00,1.1374
5482.00,1.1374
5481.00,1.1373
5480.00,1.1373
5479.00,1.1374
5478.00,1.1374
5477.00,1.1373
5476.00,1.1372
5475.00,1.1372
5474.00,1.1372
5473.00,1.1372
5472.00,1.1372
5471.00,1.1372
5470.00,1.1372
5469.00,1.1372
5468.00,1.1372
5467.00,1.1372
5466.00,1.1372
5465.00,1.1372
5464.00,1.1372
5463.00,1.1372
5462.00,1.1372
5461.00,1.1372
5460.00,1.1372
5459.00,1.1373
5458.00,1.1373
5457.00,1.1372
5456.00,1.1372
5455.00,1.1372
5454.00,1.1372
5453.00,1.1371
5452.00,1.1371
5451.00,1.1371
5450.00,1.1371
5449.00,1.1372
5448.00,1.1372
5447.00,1.1372
5446.00,1.1371
5445.00,1.1371
5444.00,1.1372
5443.00,1.1372
5442.00,1.1371
5441.00,1.1370
5440.00,1.1371
5439.00,1.1372
5438.00,1.1373
5437.00,1.1373
5436.00,1.1373
5435.00,1.1373
5434.00,1.1373
5433.00,1.1374
5432.00,1.1374
5431.00,1.1373
5430.00,1.1372
5429.00,1.1371
5428.00,1.1372
5427.00,1.1372
5426.00,1.1372
5425.00,1.1371
5424.00,1.1371
5423.00,1.1372
5422.00,1.1373
5421.00,1.1373
5420.00,1.1373
5419.00,1.1373
5418.00,1.1373
5417.00,1.1373
5416.00,1.1373
5415.00,1.1372
5414.00,1.1371
5413.00,1.1371
5412.00,1.1371
5411.00,1.1370
5410.00,1.1368
5409.00,1.1368
5408.00,1.1368
5407.00,1.1369
5406.00,1.1368
5405.00,1.1368
5404.00,1.1368
5403.00,1.1369
5402.00,1.1369
5401.00,1.1370
5400.00,1.1370
5399.00,1.1371
5398.00,1.1372
5397.00,1.1372
5396.00,1.1372
5395.00,1.1370
5394.00,1.1369
5393.00,1.1367
5392.00,1.1367
5391.00,1.1368
5390.00,1.1368
5389.00,1.1369
5388.00,1.1370
5387.00,1.1371
5386.00,1.1371
5385.00,1.1370
5384.00,1.1369
5383.00,1.1368
5382.00,1.1367
5381.00,1.1367
5380.00,1.1367
5379.00,1.1367
5378.00,1.1367
5377.00,1.1367
5376.00,1.1368
5375.00,1.1369
5374.00,1.1369
5373.00,1.1369
5372.00,1.1369
5371.00,1.1369
5370.00,1.1369
5369.00,1.1369
5368.00,1.1369
5367.00,1.1369
5366.00,1.1369
5365.00,1.1369
5364.00,1.1368
5363.00,1.1369
5362.00,1.1369
5361.00,1.1369
5360.00,1.1369
5359.00,1.1369
5358.00,1.1369
5357.00,1.1369
5356.00,1.1369
5355.00,1.1369
5354.00,1.1369
5353.00,1.1369
5352.00,1.1370
5351.00,1.1369
5350.00,1.1369
5349.00,1.1369
5348.00,1.1369
5347.00,1.1369
5346.00,1.1369
5345.00,1.1368
5344.00,1.1368
5343.00,1.1369
5342.00,1.1370
5341.00,1.1370
5340.00,1.1369
5339.00,1.1369
5338.00,1.1369
5337.00,1.1370
5336.00,1.1370
5335.00,1.1370
5334.00,1.1370
5333.00,1.1370
5332.00,1.1371
5331.00,1.1372
5330.00,1.1372
5329.00,1.1371
5328.00,1.1370
5327.00,1.1370
5326.00,1.1371
5325.00,1.1371
5324.00,1.1372
5323.00,1.1372
5322.00,1.1372
5321.00,1.1372
5320.00,1.1371
5319.00,1.1371
5318.00,1.1370
5317.00,1.1370
5316.00,1.1371
5315.00,1.1372
5314.00,1.1372
5313.00,1.1372
5312.00,1.1372
5311.00,1.1372
5310.00,1.1372
5309.00,1.1371
5308.00,1.1371
5307.00,1.1372
5306.00,1.1373
5305.00,1.1373
5304.00,1.1373
5303.00,1.1374
5302.00,1.1375
5301.00,1.1375
5300.00,1.1375
5299.00,1.1376
5298.00,1.1376
5297.00,1.1375
5296.00,1.1375
5295.00,1.1375
5294.00,1.1375
5293.00,1.1376
5292.00,1.1375
5291.00,1.1375
5290.00,1.1375
5289.00,1.1376
5288.00,1.1376
5287.00,1.1377
5286.00,1.1377
5285.00,1.1377
5284.00,1.1378
5283.00,1.1378
5282.00,1.1378
5281.00,1.1378
5280.00,1.1378
5279.00,1.1378
5278.00,1.1379
5277.00,1.1379
5276.00,1.1379
5275.00,1.1379
5274.00,1.1379
5273.00,1.1379
5272.00,1.1379
5271.00,1.1379
5270.00,1.1379
5269.00,1.1379
5268.00,1.1380
5267.00,1.1381
5266.00,1.1381
5265.00,1.1382
5264.00,1.1382
5263.00,1.1383
5262.00,1.1384
5261.00,1.1384
5260.00,1.1383
5259.00,1.1384
5258.00,1.1385
5257.00,1.1385
5256.00,1.1385
5255.00,1.1386
5254.00,1.1386
5253.00,1.1387
5252.00,1.1388
5251.00,1.1389
5250.00,1.1389
5249.00,1.1389
5248.00,1.1389
5247.00,1.1390
5246.00,1.1389
5245.00,1.1389
5244.00,1.1389
5243.00,1.1390
5242.00,1.1392
5241.00,1.1393
5240.00,1.1394
5239.00,1.1395
5238.00,1.1395
5237.00,1.1396
5236.00,1.1396
5235.00,1.1396
5234.00,1.1396
5233.00,1.1396
5232.00,1.1395
5231.00,1.1396
5230.00,1.1396
5229.00,1.1397
5228.00,1.1398
5227.00,1.1399
5226.00,1.1399
5225.00,1.1400
5224.00,1.1401
5223.00,1.1402
5222.00,1.1402
5221.00,1.1403
5220.00,1.1403
5219.00,1.1404
5218.00,1.1405
5217.00,1.1405
5216.00,1.1406
5215.00,1.1407
5214.00,1.1408
5213.00,1.1409
5212.00,1.1410
5211.00,1.1410
5210.00,1.1410
5209.00,1.1410
5208.00,1.1409
5207.00,1.1410
5206.00,1.1410
5205.00,1.1411
5204.00,1.1412
5203.00,1.1412
5202.00,1.1413
5201.00,1.1414
5200.00,1.1416
5199.00,1.1417
5198.00,1.1417
5197.00,1.1418
5196.00,1.1418
5195.00,1.1419
5194.00,1.1419
5193.00,1.1419
5192.00,1.1419
5191.00,1.1420
5190.00,1.1420
5189.00,1.1421
5188.00,1.1422
5187.00,1.1423
5186.00,1.1424
5185.00,1.1424
5184.00,1.1425
5183.00,1.1426
5182.00,1.1426
5181.00,1.1426
5180.00,1.1426
5179.00,1.1427
5178.00,1.1427
5177.00,1.1428
5176.00,1.1429
5175.00,1.1430
5174.00,1.1430
5173.00,1.1431
5172.00,1.1431
5171.00,1.1431
5170.00,1.1431
5169.00,1.1431
5168.00,1.1432
5167.00,1.1433
5166.00,1.1434
5165.00,1.1435
5164.00,1.1436
5163.00,1.1437
5162.00,1.1438
5161.00,1.1438
5160.00,1.1439
5159.00,1.1439
5158.00,1.1439
5157.00,1.1440
5156.00,1.1441
5155.00,1.1441
5154.00,1.1442
5153.00,1.1442
5152.00,1.1442
5151.00,1.1442
5150.00,1.1443
5149.00,1.1443
5148.00,1.1444
5147.00,1.1445
5146.00,1.1446
5145.00,1.1446
5144.00,1.1447
5143.00,1.1447
5142.00,1.1447
5141.00,1.1448
5140.00,1.1448
5139.00,1.1449
5138.00,1.1449
5137.00,1.1450
5136.00,1.1450
5135.00,1.1450
5134.00,1.1451
5133.00,1.1451
5132.00,1.1451
5131.00,1.1451
5130.00,1.1451
5129.00,1.1451
5128.00,1.1452
5127.00,1.1453
5126.00,1.1453
5125.00,1.1453
5124.00,1.1454
5123.00,1.1454
5122.00,1.1454
5121.00,1.1455
5120.00,1.1455
5119.00,1.1455
5118.00,1.1455
5117.00,1.1455
5116.00,1.1455
5115.00,1.1455
5114.00,1.1456
5113.00,1.1456
5112.00,1.1456
5111.00,1.1457
5110.00,1.1456
5109.00,1.1456
5108.00,1.1455
5107.00,1.1455
5106.00,1.1456
5105.00,1.1456
5104.00,1.1456
5103.00,1.1457
5102.00,1.1457
5101.00,1.1457
5100.00,1.1457
5099.00,1.1457
5098.00,1.1457
5097.00,1.1457
5096.00,1.1457
5095.00,1.1457
5094.00,1.1457
5093.00,1.1457
5092.00,1.1457
5091.00,1.1458
5090.00,1.1458
5089.00,1.1458
5088.00,1.1458
5087.00,1.1459
5086.00,1.1459
5085.00,1.1458
5084.00,1.1459
5083.00,1.1459
5082.00,1.1460
5081.00,1.1461
5080.00,1.1461
5079.00,1.1461
5078.00,1.1460
5077.00,1.1459
5076.00,1.1458
5075.00,1.1458
5074.00,1.1458
5073.00,1.1458
5072.00,1.1459
5071.00,1.1461
5070.00,1.1461
5069.00,1.1462
5068.00,1.1462
5067.00,1.1462
5066.00,1.1461
5065.00,1.1461
5064.00,1.1460
5063.00,1.1459
5062.00,1.1458
5061.00,1.1458
5060.00,1.1459
5059.00,1.1460
5058.00,1.1460
5057.00,1.1461
5056.00,1.1461
5055.00,1.1461
5054.00,1.1461
5053.00,1.1460
5052.00,1.1461
5051.00,1.1461
5050.00,1.1461
5049.00,1.1461
5048.00,1.1461
5047.00,1.1462
5046.00,1.1462
5045.00,1.1462
5044.00,1.1461
5043.00,1.1461
5042.00,1.1461
5041.00,1.1461
5040.00,1.1461
5039.00,1.1461
5038.00,1.1462
5037.00,1.1462
5036.00,1.1462
5035.00,1.1462
5034.00,1.1461
5033.00,1.1461
5032.00,1.1460
5031.00,1.1460
5030.00,1.1460
5029.00,1.1460
5028.00,1.1460
5027.00,1.1461
5026.00,1.1461
5025.00,1.1461
5024.00,1.1461
5023.00,1.1460
5022.00,1.1460
5021.00,1.1460
5020.00,1.1460
5019.00,1.1460
5018.00,1.1460
5017.00,1.1460
5016.00,1.1461
5015.00,1.1461
5014.00,1.1461
5013.00,1.1461
5012.00,1.1461
5011.00,1.1461
5010.00,1.1461
5009.00,1.1460
5008.00,1.1460
5007.00,1.1459
5006.00,1.1459
5005.00,1.1459
5004.00,1.1458
5003.00,1.1458
5002.00,1.1458
5001.00,1.1459
5000.00,1.1459
4999.00,1.1459
4998.00,1.1459
4997.00,1.1459
4996.00,1.1459
4995.00,1.1459
4994.00,1.1459
4993.00,1.1459
4992.00,1.1459
4991.00,1.1459
4990.00,1.1459
4989.00,1.1458
4988.00,1.1458
4987.00,1.1458
4986.00,1.1457
4985.00,1.1456
4984.00,1.1456
4983.00,1.1456
4982.00,1.1457
4981.00,1.1457
4980.00,1.1457
4979.00,1.1456
4978.00,1.1456
4977.00,1.1456
4976.00,1.1455
4975.00,1.1456
4974.00,1.1456
4973.00,1.1456
4972.00,1.1457
4971.00,1.1457
4970.00,1.1458
4969.00,1.1458
4968.00,1.1458
4967.00,1.1458
4966.00,1.1457
4965.00,1.1456
4964.00,1.1455
4963.00,1.1454
4962.00,1.1454
4961.00,1.1455
4960.00,1.1456
4959.00,1.1457
4958.00,1.1457
4957.00,1.1457
4956.00,1.1456
4955.00,1.1456
4954.00,1.1455
4953.00,1.1455
4952.00,1.1454
4951.00,1.1454
4950.00,1.1454
4949.00,1.1454
4948.00,1.1454
4947.00,1.1454
4946.00,1.1455
4945.00,1.1455
4944.00,1.1455
4943.00,1.1454
4942.00,1.1454
4941.00,1.1453
4940.00,1.1453
4939.00,1.1452
4938.00,1.1452
4937.00,1.1452
4936.00,1.1452
4935.00,1.1452
4934.00,1.1452
4933.00,1.1451
4932.00,1.1451
4931.00,1.1451
4930.00,1.1451
4929.00,1.1451
4928.00,1.1451
4927.00,1.1451
4926.00,1.1451
4925.00,1.1450
4924.00,1.1450
4923.00,1.1450
4922.00,1.1450
4921.00,1.1450
4920.00,1.1450
4919.00,1.1450
4918.00,1.1450
4917.00,1.1449
4916.00,1.1448
4915.00,1.1448
4914.00,1.1447
4913.00,1.1446
4912.00,1.1446
4911.00,1.1446
4910.00,1.1446
4909.00,1.1446
4908.00,1.1445
4907.00,1.1445
4906.00,1.1445
4905.00,1.1445
4904.00,1.1445
4903.00,1.1445
4902.00,1.1445
4901.00,1.1445
4900.00,1.1445
4899.00,1.1445
4898.00,1.1444
4897.00,1.1444
4896.00,1.1443
4895.00,1.1443
4894.00,1.1442
4893.00,1.1442
4892.00,1.1441
4891.00,1.1441
4890.00,1.1441
4889.00,1.1441
4888.00,1.1441
4887.00,1.1441
4886.00,1.1441
4885.00,1.1441
4884.00,1.1441
4883.00,1.1440
4882.00,1.1440
4881.00,1.1440
4880.00,1.1440
4879.00,1.1440
4878.00,1.1440
4877.00,1.1440
4876.00,1.1439
4875.00,1.1439
4874.00,1.1439
4873.00,1.1439
4872.00,1.1439
4871.00,1.1439
4870.00,1.1438
4869.00,1.1438
4868.00,1.1438
4867.00,1.1437
4866.00,1.1437
4865.00,1.1437
4864.00,1.1436
4863.00,1.1436
4862.00,1.1436
4861.00,1.1436
4860.00,1.1436
4859.00,1.1437
4858.00,1.1437
4857.00,1.1436
4856.00,1.1436
4855.00,1.1436
4854.00,1.1435
4853.00,1.1435
4852.00,1.1434
4851.00,1.1434
4850.00,1.1434
4849.00,1.1434
4848.00,1.1433
4847.00,1.1433
4846.00,1.1433
4845.00,1.1433
4844.00,1.1433
4843.00,1.1433
4842.00,1.1432
4841.00,1.1432
4840.00,1.1432
4839.00,1.1432
4838.00,1.1432
4837.00,1.1432
4836.00,1.1432
4835.00,1.1431
4834.00,1.1431
4833.00,1.1430
4832.00,1.1430
4831.00,1.1430
4830.00,1.1429
4829.00,1.1429
4828.00,1.1429
4827.00,1.1428
4826.00,1.1428
4825.00,1.1428
4824.00,1.1428
4823.00,1.1427
4822.00,1.1427
4821.00,1.1427
4820.00,1.1427
4819.00,1.1427
4818.00,1.1426
4817.00,1.1425
4816.00,1.1425
4815.00,1.1424
4814.00,1.1424
4813.00,1.1424
4812.00,1.1424
4811.00,1.1423
4810.00,1.1423
4809.00,1.1422
4808.00,1.1422
4807.00,1.1422
4806.00,1.1422
4805.00,1.1421
4804.00,1.1421
4803.00,1.1420
4802.00,1.1420
4801.00,1.1419
4800.00,1.1419
4799.00,1.1419
4798.00,1.1419
4797.00,1.1419
4796.00,1.1418
4795.00,1.1418
4794.00,1.1417
4793.00,1.1417
4792.00,1.1417
4791.00,1.1417
4790.00,1.1416
4789.00,1.1416
4788.00,1.1415
4787.00,1.1415
4786.00,1.1414
4785.00,1.1414
4784.00,1.1414
4783.00,1.1415
4782.00,1.1415
4781.00,1.1415
4780.00,1.1415
4779.00,1.1415
4778.00,1.1414
4777.00,1.1413
4776.00,1.1413
4775.00,1.1413
4774.00,1.1413
4773.00,1.1413
4772.00,1.1413
4771.00,1.1412
4770.00,1.1412
4769.00,1.1411
4768.00,1.1411
4767.00,1.1410
4766.00,1.1409
4765.00,1.1408
4764.00,1.1408
4763.00,1.1407
4762.00,1.1407
4761.00,1.1407
4760.00,1.1406
4759.00,1.1406
4758.00,1.1405
4757.00,1.1405
