Created as New Dataset,Sample 028 By Administrator Date Monday, February 10 2020
cm-1,A
6000.00,1.2014
5999.00,1.2014
5998.00,1.2013
5997.00,1.2012
5996.00,1.2011
5995.00,1.2009
5994.00,1.2007
5993.00,1.2005
5992.00,1.2005
5991.00,1.2004
5990.00,1.2004
5989.00,1.2004
5988.00,1.2005
5987.00,1.2005
5986.00,1.2005
5985.00,1.2006
5984.00,1.2007
5983.00,1.2008
5982.00,1.2008
5981.00,1.2008
5980.00,1.2007
5979.00,1.2006
5978.00,1.2004
5977.00,1.2002
5976.00,1.2001
5975.00,1.2001
5974.00,1.2001
5973.00,1.2000
5972.00,1.1999
5971.00,1.1999
5970.00,1.2000
5969.00,1.2001
5968.00,1.2002
5967.00,1.2002
5966.00,1.2002
5965.00,1.2002
5964.00,1.2000
5963.00,1.1999
5962.00,1.1996
5961.00,1.1995
5960.00,1.1995
5959.00,1.1996
5958.00,1.1998
5957.00,1.1998
5956.00,1.1998
5955.00,1.1997
5954.00,1.1996
5953.00,1.1995
5952.00,1.1994
5951.00,1.1993
5950.00,1.1993
5949.00,1.1994
5948.00,1.1994
5947.00,1.1995
5946.00,1.1995
5945.00,1.1995
5944.00,1.1996
5943.00,1.1996
5942.00,1.1997
5941.00,1.1996
5940.00,1.1996
5939.00,1.1996
5938.00,1.1994
5937.00,1.1991
5936.00,1.1988
5935.00,1.1987
5934.00,1.1987
5933.00,1.1987
5932.00,1.1987
5931.00,1.1989
5930.00,1.1990
5929.00,1.1990
5928.00,1.1990
5927.00,1.1991
5926.00,1.1991
5925.00,1.1991
5924.00,1.1992
5923.00,1.1992
5922.00,1.1991
5921.00,1.1990
5920.00,1.1989
5919.00,1.1987
5918.00,1.1986
5917.00,1.1985
5916.00,1.1985
5915.00,1.1984
5914.00,1.1984
5913.00,1.1984
5912.00,1.1984
5911.00,1.1985
5910.00,1.1986
5909.00,1.1986
5908.00,1.1986
5907.00,1.1986
5906.00,1.1986
5905.00,1.1986
5904.00,1.1986
5903.00,1.1986
5902.00,1.1986
5901.00,1.1986
5900.00,1.1985
5899.00,1.1985
5898.00,1.1985
5897.00,1.1984
5896.00,1.1984
5895.00,1.1983
5894.00,1.1983
5893.00,1.1981
5892.00,1.1980
5891.00,1.1977
5890.00,1.1975
5889.00,1.1973
5888.00,1.1972
5887.00,1.1971
5886.00,1.1971
5885.00,1.1972
5884.00,1.1974
5883.00,1.1977
5882.00,1.1978
5881.00,1.1979
5880.00,1.1979
5879.00,1.1979
5878.00,1.1977
5877.00,1.1976
5876.00,1.1974
5875.00,1.1972
5874.00,1.1971
5873.00,1.1970
5872.00,1.1969
5871.00,1.1969
5870.00,1.1969
5869.00,1.1969
5868.00,1.1969
5867.00,1.1969
5866.00,1.1969
5865.00,1.1968
5864.00,1.1968
5863.00,1.1968
5862.00,1.1966
5861.00,1.1965
5860.00,1.1964
5859.00,1.1964
5858.00,1.1963
5857.00,1.1963
5856.00,1.1963
5855.00,1.1964
5854.00,1.1964
5853.00,1.1964
5852.00,1.1964
5851.00,1.1965
5850.00,1.1966
5849.00,1.1967
5848.00,1.1967
5847.00,1.1967
5846.00,1.1967
5845.00,1.1965
5844.00,1.1964
5843.00,1.1964
5842.00,1.1964
5841.00,1.1964
5840.00,1.1963
5839.00,1.1963
5838.00,1.1962
5837.00,1.1961
5836.00,1.1961
5835.00,1.1961
5834.00,1.1961
5833.00,1.1962
5832.00,1.1964
5831.00,1.1965
5830.00,1.1965
5829.00,1.1965
5828.00,1.1965
5827.00,1.1965
5826.00,1.1965
5825.00,1.1964
5824.00,1.1964
5823.00,1.1964
5822.00,1.1964
5821.00,1.1963
5820.00,1.1962
5819.00,1.1962
5818.00,1.1962
5817.00,1.1962
5816.00,1.1962
5815.00,1.1962
5814.00,1.1962
5813.00,1.1961
5812.00,1.1961
5811.00,1.1960
5810.00,1.1960
5809.00,1.1960
5808.00,1.1960
5807.00,1.1960
5806.00,1.1960
5805.00,1.1959
5804.00,1.1958
5803.00,1.1956
5802.00,1.1955
5801.00,1.1954
5800.00,1.1954
5799.00,1.1956
5798.00,1.1957
5797.00,1.1957
5796.00,1.1958
5795.00,1.1958
5794.00,1.1958
5793.00,1.1957
5792.00,1.1956
5791.00,1.1955
5790.00,1.1954
5789.00,1.1952
5788.00,1.1951
5787.00,1.1950
5786.00,1.1950
5785.00,1.1949
5784.00,1.1949
5783.00,1.1948
5782.00,1.1948
5781.00,1.1948
5780.00,1.1947
5779.00,1.1948
5778.00,1.1949
5777.00,1.1950
5776.00,1.1951
5775.00,1.1952
5774.00,1.1952
5773.00,1.1952
5772.00,1.1952
5771.00,1.1952
5770.00,1.1952
5769.00,1.1951
5768.00,1.1950
5767.00,1.1949
5766.00,1.1948
5765.00,1.1948
5764.00,1.1947
5763.00,1.1947
5762.00,1.1947
5761.00,1.1947
5760.00,1.1947
5759.00,1.1946
5758.00,1.1945
5757.00,1.1943
5756.00,1.1942
5755.00,1.1941
5754.00,1.1940
5753.00,1.1940
5752.00,1.1941
5751.00,1.1941
5750.00,1.1941
5749.00,1.1942
5748.00,1.1942
5747.00,1.1942
5746.00,1.1941
5745.00,1.1940
5744.00,1.1939
5743.00,1.1939
5742.00,1.1939
5741.00,1.1939
5740.00,1.1941
5739.00,1.1942
5738.00,1.1943
5737.00,1.1943
5736.00,1.1942
5735.00,1.1941
5734.00,1.1941
5733.00,1.1940
5732.00,1.1940
5731.00,1.1940
5730.00,1.1940
5729.00,1.1939
5728.00,1.1939
5727.00,1.1938
5726.00,1.1936
5725.00,1.1935
5724.00,1.1934
5723.00,1.1934
5722.00,1.1933
5721.00,1.1933
5720.00,1.1933
5719.00,1.1934
5718.00,1.1935
5717.00,1.1935
5716.00,1.1934
5715.00,1.1934
5714.00,1.1933
5713.00,1.1933
5712.00,1.1933
5711.00,1.1934
5710.00,1.1935
5709.00,1.1935
5708.00,1.1936
5707.00,1.1936
5706.00,1.1936
5705.00,1.1935
5704.00,1.1935
5703.00,1.1936
5702.00,1.1936
5701.00,1.1935
5700.00,1.1935
5699.00,1.1935
5698.00,1.1935
5697.00,1.1934
5696.00,1.1934
5695.00,1.1933
5694.00,1.1933
5693.00,1.1932
5692.00,1.1932
5691.00,1.1931
5690.00,1.1931
5689.00,1.1930
5688.00,1.1929
5687.00,1.1929
5686.00,1.1929
5685.00,1.1929
5684.00,1.1930
5683.00,1.1930
5682.00,1.1930
5681.00,1.1929
5680.00,1.1928
5679.00,1.1927
5678.00,1.1925
5677.00,1.1924
5676.00,1.1923
5675.00,1.1924
5674.00,1.1924
5673.00,1.1925
5672.00,1.1926
5671.00,1.1927
5670.00,1.1927
5669.00,1.1928
5668.00,1.1927
5667.00,1.1926
5666.00,1.1925
5665.00,1.1923
5664.00,1.1921
5663.00,1.1921
5662.00,1.1920
5661.00,1.1920
5660.00,1.1920
5659.00,1.1920
5658.00,1.1920
5657.00,1.1920
5656.00,1.1920
5655.00,1.1920
5654.00,1.1921
5653.00,1.1921
5652.00,1.1921
5651.00,1.1923
5650.00,1.1924
5649.00,1.1925
5648.00,1.1924
5647.00,1.1924
5646.00,1.1922
5645.00,1.1920
5644.00,1.1918
5643.00,1.1917
5642.00,1.1918
5641.00,1.1919
5640.00,1.1921
5639.00,1.1922
5638.00,1.1922
5637.00,1.1922
5636.00,1.1921
5635.00,1.1920
5634.00,1.1919
5633.00,1.1919
5632.00,1.1919
5631.00,1.1919
5630.00,1.1919
5629.00,1.1919
5628.00,1.1919
5627.00,1.1918
5626.00,1.1917
5625.00,1.1917
5624.00,1.1917
5623.00,1.1917
5622.00,1.1918
5621.00,1.1918
5620.00,1.1919
5619.00,1.1918
5618.00,1.1918
5617.00,1.1917
5616.00,1.1916
5615.00,1.1916
5614.00,1.1916
5613.00,1.1916
5612.00,1.1916
5611.00,1.1916
5610.00,1.1915
5609.00,1.1915
5608.00,1.1914
5607.00,1.1913
5606.00,1.1913
5605.00,1.1912
5604.00,1.1911
5603.00,1.1911
5602.00,1.1912
5601.00,1.1912
5600.00,1.1913
5599.00,1.1913
5598.00,1.1913
5597.00,1.1912
5596.00,1.1911
5595.00,1.1910
5594.00,1.1910
5593.00,1.1909
5592.00,1.1908
5591.00,1.1908
5590.00,1.1908
5589.00,1.1907
5588.00,1.1907
5587.00,1.1907
5586.00,1.1907
5585.00,1.1906
5584.00,1.1906
5583.00,1.1906
5582.00,1.1906
5581.00,1.1906
5580.00,1.1906
5579.00,1.1906
5578.00,1.1906
5577.00,1.1905
5576.00,1.1904
5575.00,1.1904
5574.00,1.1903
5573.00,1.1903
5572.00,1.1904
5571.00,1.1904
5570.00,1.1904
5569.00,1.1903
5568.00,1.1903
5567.00,1.1902
5566.00,1.1902
5565.00,1.1902
5564.00,1.1902
5563.00,1.1902
5562.00,1.1902
5561.00,1.1901
5560.00,1.1901
5559.00,1.1901
5558.00,1.1902
5557.00,1.1902
5556.00,1.1903
5555.00,1.1903
5554.00,1.1902
5553.00,1.1900
5552.00,1.1899
5551.00,1.1898
5550.00,1.1898
5549.00,1.1899
5548.00,1.1900
5547.00,1.1901
5546.00,1.1901
5545.00,1.1901
5544.00,1.1900
5543.00,1.1900
5542.00,1.1899
5541.00,1.1899
5540.00,1.1898
5539.00,1.1898
5538.00,1.1898
5537.00,1.1897
5536.00,1.1897
5535.00,1.1896
5534.00,1.1896
5533.00,1.1896
5532.00,1.1895
5531.00,1.1895
5530.00,1.1895
5529.00,1.1895
5528.00,1.1895
5527.00,1.1895
5526.00,1.1896
5525.00,1.1896
5524.00,1.1895
5523.00,1.1894
5522.00,1.1893
5521.00,1.1892
5520.00,1.1891
5519.00,1.1892
5518.00,1.1892
5517.00,1.1891
5516.00,1.1891
5515.00,1.1891
5514.00,1.1890
5513.00,1.1891
5512.00,1.1892
5511.00,1.1892
5510.00,1.1892
5509.00,1.1892
5508.00,1.1892
5507.00,1.1891
5506.00,1.1890
5505.00,1.1889
5504.00,1.1889
5503.00,1.1888
5502.00,1.1888
5501.00,1.1886
5500.00,1.1885
5499.00,1.1884
5498.00,1.1883
5497.00,1.1883
5496.00,1.1884
5495.00,1.1885
5494.00,1.1886
5493.00,1.1886
5492.00,1.1887
5491.00,1.1887
5490.00,1.1886
5489.00,1.1886
5488.00,1.1885
5487.00,1.1884
5486.00,1.1884
5485.00,1.1884
5484.00,1.1884
5483.00,1.1884
5482.00,1.1883
5481.00,1.1882
5480.00,1.1881
5479.00,1.1881
5478.00,1.1881
5477.00,1.1881
5476.00,1.1881
5475.00,1.1881
5474.00,1.1881
5473.00,1.1880
5472.00,1.1879
5471.00,1.1878
5470.00,1.1876
5469.00,1.1875
5468.00,1.1874
5467.00,1.1874
5466.00,1.1874
5465.00,1.1873
5464.00,1.1873
5463.00,1.1874
5462.00,1.1874
5461.00,1.1874
5460.00,1.1874
5459.00,1.1875
5458.00,1.1875
5457.00,1.1875
5456.00,1.1874
5455.00,1.1873
5454.00,1.1872
5453.00,1.1872
5452.00,1.1872
5451.00,1.1872
5450.00,1.1872
5449.00,1.1873
5448.00,1.1873
5447.00,1.1872
5446.00,1.1871
5445.00,1.1870
5444.00,1.1869
5443.00,1.1870
5442.00,1.1870
5441.00,1.1869
5440.00,1.1870
5439.00,1.1870
5438.00,1.1871
5437.00,1.1870
5436.00,1.1869
5435.00,1.1867
5434.00,1.1866
5433.00,1.1866
5432.00,1.1866
5431.00,1.1866
5430.00,1.1866
5429.00,1.1867
5428.00,1.1868
5427.00,1.1870
5426.00,1.1870
5425.00,1.1870
5424.00,1.1870
5423.00,1.1871
5422.00,1.1871
5421.00,1.1871
5420.00,1.1870
5419.00,1.1870
5418.00,1.1870
5417.00,1.1868
5416.00,1.1866
5415.00,1.1864
5414.00,1.1862
5413.00,1.1860
5412.00,1.1860
5411.00,1.1860
5410.00,1.1860
5409.00,1.1861
5408.00,1.1863
5407.00,1.1863
5406.00,1.1863
5405.00,1.1863
5404.00,1.1862
5403.00,1.1862
5402.00,1.1862
5401.00,1.1863
5400.00,1.1863
5399.00,1.1862
5398.00,1.1861
5397.00,1.1860
5396.00,1.1860
5395.00,1.1860
5394.00,1.1860
5393.00,1.1861
5392.00,1.1861
5391.00,1.1861
5390.00,1.1860
5389.00,1.1859
5388.00,1.1859
5387.00,1.1858
5386.00,1.1858
5385.00,1.1858
5384.00,1.1858
5383.00,1.1858
5382.00,1.1857
5381.00,1.1856
5380.00,1.1856
5379.00,1.1856
5378.00,1.1856
5377.00,1.1856
5376.00,1.1856
5375.00,1.1856
5374.00,1.1856
5373.00,1.1856
5372.00,1.1856
5371.00,1.1856
5370.00,1.1857
5369.00,1.1856
5368.00,1.1856
5367.00,1.1856
5366.00,1.1856
5365.00,1.1856
5364.00,1.1855
5363.00,1.1855
5362.00,1.1855
5361.00,1.1854
5360.00,1.1853
5359.00,1.1853
5358.00,1.1853
5357.00,1.1853
5356.00,1.1854
5355.00,1.1854
5354.00,1.1853
5353.00,1.1853
5352.00,1.1852
5351.00,1.1852
5350.00,1.1851
5349.00,1.1851
5348.00,1.1851
5347.00,1.1852
5346.00,1.1851
5345.00,1.1849
5344.00,1.1847
5343.00,1.1847
5342.00,1.1847
5341.00,1.1847
5340.00,1.1847
5339.00,1.1847
5338.00,1.1846
5337.00,1.1847
5336.00,1.1848
5335.00,1.1849
5334.00,1.1850
5333.00,1.1851
5332.00,1.1851
5331.00,1.1852
5330.00,1.1852
5329.00,1.1852
5328.00,1.1851
5327.00,1.1851
5326.00,1.1851
5325.00,1.1852
5324.00,1.1852
5323.00,1.1851
5322.00,1.1851
5321.00,1.1851
5320.00,1.1851
5319.00,1.1852
5318.00,1.1852
5317.00,1.1851
5316.00,1.1851
5315.00,1.1851
5314.00,1.1851
5313.00,1.1850
5312.00,1.1850
5311.00,1.1850
5310.00,1.1851
5309.00,1.1851
5308.00,1.1850
5307.00,1.1850
5306.00,1.1850
5305.00,1.1849
5304.00,1.1849
5303.00,1.1849
5302.00,1.1849
5301.00,1.1849
5300.00,1.1849
5299.00,1.1849
5298.00,1.1849
5297.00,1.1849
5296.00,1.1848
5295.00,1.1848
5294.00,1.1848
5293.00,1.1848
5292.00,1.1847
5291.00,1.1846
5290.00,1.1846
5289.00,1.1846
5288.00,1.1846
5287.00,1.1847
5286.00,1.1847
5285.00,1.1848
5284.00,1.1848
5283.00,1.1849
5282.00,1.1849
5281.00,1.1849
5280.00,1.1848
5279.00,1.1848
5278.00,1.1848
5277.00,1.1848
5276.00,1.1848
5275.00,1.1849
5274.00,1.1849
5273.00,1.1850
5272.00,1.1850
5271.00,1.1850
5270.00,1.1849
5269.00,1.1848
5268.00,1.1848
5267.00,1.1849
5266.00,1.1849
5265.00,1.1849
5264.00,1.1848
5263.00,1.1848
5262.00,1.1849
5261.00,1.1849
5260.00,1.1849
5259.00,1.1850
5258.00,1.1851
5257.00,1.1852
5256.00,1.1853
5255.00,1.1853
5254.00,1.1853
5253.00,1.1853
5252.00,1.1853
5251.00,1.1853
5250.00,1.1852
5249.00,1.1850
5248.00,1.1850
5247.00,1.1851
5246.00,1.1852
5245.00,1.1852
5244.00,1.1853
5243.00,1.1855
5242.00,1.1857
5241.00,1.1857
5240.00,1.1858
5239.00,1.1858
5238.00,1.1858
5237.00,1.1859
5236.00,1.1860
5235.00,1.1861
5234.00,1.1862
5233.00,1.1863
5232.00,1.1862
5231.00,1.1862
5230.00,1.1861
5229.00,1.1860
5228.00,1.1860
5227.00,1.1860
5226.00,1.1860
5225.00,1.1861
5224.00,1.1862
5223.00,1.1863
5222.00,1.1863
5221.00,1.1864
5220.00,1.1865
5219.00,1.1865
5218.00,1.1866
5217.00,1.1866
5216.00,1.1866
5215.00,1.1866
5214.00,1.1866
5213.00,1.1866
5212.00,1.1866
5211.00,1.1867
5210.00,1.1867
5209.00,1.1867
5208.00,1.1868
5207.00,1.1868
5206.00,1.1868
5205.00,1.1869
5204.00,1.1870
5203.00,1.1870
5202.00,1.1871
5201.00,1.1871
5200.00,1.1871
5199.00,1.1872
5198.00,1.1872
5197.00,1.1872
5196.00,1.1873
5195.00,1.1873
5194.00,1.1874
5193.00,1.1874
5192.00,1.1875
5191.00,1.1876
5190.00,1.1876
5189.00,1.1876
5188.00,1.1876
5187.00,1.1876
5186.00,1.1876
5185.00,1.1876
5184.00,1.1877
5183.00,1.1877
5182.00,1.1878
5181.00,1.1878
5180.00,1.1878
5179.00,1.1879
5178.00,1.1880
5177.00,1.1880
5176.00,1.1881
5175.00,1.1882
5174.00,1.1882
5173.00,1.1883
5172.00,1.1884
5171.00,1.1885
5170.00,1.1886
5169.00,1.1886
5168.00,1.1886
5167.00,1.1885
5166.00,1.1885
5165.00,1.1885
5164.00,1.1886
5163.00,1.1887
5162.00,1.1888
5161.00,1.1888
5160.00,1.1888
5159.00,1.1889
5158.00,1.1888
5157.00,1.1888
5156.00,1.1889
5155.00,1.1889
5154.00,1.1891
5153.00,1.1891
5152.00,1.1892
5151.00,1.1892
5150.00,1.1892
5149.00,1.1892
5148.00,1.1893
5147.00,1.1893
5146.00,1.1894
5145.00,1.1895
5144.00,1.1896
5143.00,1.1897
5142.00,1.1897
5141.00,1.1896
5140.00,1.1896
5139.00,1.1896
5138.00,1.1896
5137.00,1.1896
5136.00,1.1897
5135.00,1.1897
5134.00,1.1898
5133.00,1.1898
5132.00,1.1899
5131.00,1.1899
5130.00,1.1900
5129.00,1.1900
5128.00,1.1900
5127.00,1.1900
5126.00,1.1900
5125.00,1.1900
5124.00,1.1900
5123.00,1.1900
5122.00,1.1900
5121.00,1.1900
5120.00,1.1899
5119.00,1.1899
5118.00,1.1899
5117.00,1.1899
5116.00,1.1899
5115.00,1.1899
5114.00,1.1899
5113.00,1.1898
5112.00,1.1898
5111.00,1.1898
5110.00,1.1898
5109.00,1.1898
5108.00,1.1899
5107.00,1.1899
5106.00,1.1900
5105.00,1.1899
5104.00,1.1899
5103.00,1.1899
5102.00,1.1899
5101.00,1.1899
5100.00,1.1899
5099.00,1.1899
5098.00,1.1898
5097.00,1.1898
5096.00,1.1898
5095.00,1.1898
5094.00,1.1898
5093.00,1.1898
5092.00,1.1899
5091.00,1.1899
5090.00,1.1898
5089.00,1.1898
5088.00,1.1897
5087.00,1.1897
5086.00,1.1897
5085.00,1.1897
5084.00,1.1897
5083.00,1.1897
5082.00,1.1897
5081.00,1.1897
5080.00,1.1896
5079.00,1.1896
5078.00,1.1897
5077.00,1.1897
5076.00,1.1897
5075.00,1.1898
5074.00,1.1897
5073.00,1.1897
5072.00,1.1896
5071.00,1.1895
5070.00,1.1894
5069.00,1.1895
5068.00,1.1895
5067.00,1.1896
5066.00,1.1896
5065.00,1.1896
5064.00,1.1896
5063.00,1.1896
5062.00,1.1896
5061.00,1.1896
5060.00,1.1896
5059.00,1.1896
5058.00,1.1896
5057.00,1.1895
5056.00,1.1895
5055.00,1.1895
5054.00,1.1895
5053.00,1.1895
5052.00,1.1895
5051.00,1.1895
5050.00,1.1896
5049.00,1.1896
5048.00,1.1896
5047.00,1.1895
5046.00,1.1895
5045.00,1.1894
5044.00,1.1893
5043.00,1.1893
5042.00,1.1893
5041.00,1.1893
5040.00,1.1893
5039.00,1.1893
5038.00,1.1893
5037.00,1.1894
5036.00,1.1894
5035.00,1.1894
5034.00,1.1893
5033.00,1.1893
5032.00,1.1892
5031.00,1.1892
5030.00,1.1891
5029.00,1.1891
5028.00,1.1891
5027.00,1.1892
5026.00,1.1892
5025.00,1.1891
5024.00,1.1890
5023.00,1.1890
5022.00,1.1889
5021.00,1.1889
5020.00,1.1889
5019.00,1.1889
5018.00,1.1889
5017.00,1.1889
5016.00,1.1888
5015.00,1.1888
5014.00,1.1887
5013.00,1.1887
5012.00,1.1887
5011.00,1.1887
5010.00,1.1887
5009.00,1.1887
5008.00,1.1887
5007.00,1.1886
5006.00,1.1886
5005.00,1.1886
5004.00,1.1886
5003.00,1.1886
5002.00,1.1886
5001.00,1.1885
5000.00,1.1884
4999.00,1.1884
4998.00,1.1884
4997.00,1.1884
4996.00,1.1884
4995.00,1.1884
4994.00,1.1884
4993.00,1.1883
4992.00,1.1883
4991.00,1.1883
4990.00,1.1882
4989.00,1.1882
4988.00,1.1882
4987.00,1.1882
4986.00,1.1882
4985.00,1.1881
4984.00,1.1880
4983.00,1.1880
4982.00,1.1880
4981.00,1.1880
4980.00,1.1880
4979.00,1.1880
4978.00,1.1879
4977.00,1.1878
4976.00,1.1877
4975.00,1.1876
4974.00,1.1876
4973.00,1.1876
4972.00,1.1876
4971.00,1.1877
4970.00,1.1877
4969.00,1.1876
4968.00,1.1876
4967.00,1.1876
4966.00,1.1876
4965.00,1.1876
4964.00,1.1876
4963.00,1.1876
4962.00,1.1876
4961.00,1.1875
4960.00,1.1875
4959.00,1.1876
4958.00,1.1876
4957.00,1.1875
4956.00,1.1874
4955.00,1.1873
4954.00,1.1873
4953.00,1.1872
4952.00,1.1871
4951.00,1.1871
4950.00,1.1870
4949.00,1.1870
4948.00,1.1870
4947.00,1.1870
4946.00,1.1871
4945.00,1.1871
4944.00,1.1871
4943.00,1.1871
4942.00,1.1870
4941.00,1.1870
4940.00,1.1870
4939.00,1.1870
4938.00,1.1870
4937.00,1.1869
4936.00,1.1869
4935.00,1.1868
4934.00,1.1867
4933.00,1.1867
4932.00,1.1866
4931.00,1.1866
4930.00,1.1865
4929.00,1.1865
4928.00,1.1864
4927.00,1.1864
4926.00,1.1864
4925.00,1.1864
4924.00,1.1864
4923.00,1.1864
4922.00,1.1863
4921.00,1.1863
4920.00,1.1862
4919.00,1.1861
4918.00,1.1861
4917.00,1.1860
4916.00,1.1860
4915.00,1.1859
4914.00,1.1859
4913.00,1.1859
4912.00,1.1858
4911.00,1.1858
4910.00,1.1857
4909.00,1.1857
4908.00,1.1856
4907.00,1.1857
4906.00,1.1857
4905.00,1.1857
4904.00,1.1857
4903.00,1.1856
4902.00,1.1856
4901.00,1.1855
4900.00,1.1854
4899.00,1.1853
4898.00,1.1853
4897.00,1.1852
4896.00,1.1851
4895.00,1.1851
4894.00,1.1851
4893.00,1.1850
4892.00,1.1850
4891.00,1.1850
4890.00,1.1850
4889.00,1.1850
4888.00,1.1849
4887.00,1.1849
4886.00,1.1848
4885.00,1.1848
4884.00,1.1848
4883.00,1.1847
4882.00,1.1847
4881.00,1.1846
4880.00,1.1846
4879.00,1.1846
4878.00,1.1845
4877.00,1.1845
4876.00,1.1845
4875.00,1.1845
4874.00,1.1845
4873.00,1.1845
4872.00,1.1845
4871.00,1.1844
4870.00,1.1844
4869.00,1.1843
4868.00,1.1842
4867.00,1.1842
4866.00,1.1842
4865.00,1.1842
4864.00,1.1842
4863.00,1.1841
4862.00,1.1841
4861.00,1.1840
4860.00,1.1840
4859.00,1.1840
4858.00,1.1840
4857.00,1.1840
4856.00,1.1839
4855.00,1.1839
4854.00,1.1838
4853.00,1.1837
4852.00,1.1836
4851.00,1.1836
4850.00,1.1836
4849.00,1.1836
4848.00,1.1836
4847.00,1.1836
4846.00,1.1836
4845.00,1.1836
4844.00,1.1835
4843.00,1.1834
4842.00,1.1833
4841.00,1.1832
4840.00,1.1832
4839.00,1.1831
4838.00,1.1831
4837.00,1.1831
4836.00,1.1830
4835.00,1.1830
4834.00,1.1830
4833.00,1.1829
4832.00,1.1829
4831.00,1.1829
4830.00,1.1828
4829.00,1.1827
4828.00,1.1827
4827.00,1.1827
4826.00,1.1826
4825.00,1.1826
4824.00,1.1826
4823.00,1.1826
4822.00,1.1825
4821.00,1.1824
4820.00,1.1823
4819.00,1.1823
4818.00,1.1822
4817.00,1.1822
4816.00,1.1822
4815.00,1.1822
4814.00,1.1822
4813.00,1.1821
4812.00,1.1820
4811.00,1.1819
4810.00,1.1818
4809.00,1.1817
4808.00,1.1816
4807.00,1.1815
4806.00,1.1815
4805.00,1.1814
4804.00,1.1814
4803.00,1.1814
4802.00,1.1814
4801.00,1.1813
4800.00,1.1813
4799.00,1.1813
4798.00,1.1813
4797.00,1.1812
4796.00,1.1812
4795.00,1.1812
4794.00,1.1811
4793.00,1.1811
4792.00,1.1810
4791.00,1.1810
4790.00,1.1809
4789.00,1.1808
4788.00,1.1808
4787.00,1.1807
4786.00,1.1807
4785.00,1.1806
4784.00,1.1806
4783.00,1.1806
4782.00,1.1806
4781.00,1.1806
4780.00,1.1805
4779.00,1.1805
4778.00,1.1804
4777.00,1.1803
4776.00,1.1803
4775.00,1.1803
4774.00,1.1802
4773.00,1.1802
4772.00,1.1802
4771.00,1.1802
4770.00,1.1801
4769.00,1.1801
4768.00,1.1801
4767.00,1.1800
4766.00,1.1800
4765.00,1.1799
4764.00,1.1798
4763.00,1.1797
4762.00,1.1796
4761.00,1.1796
4760.00,1.1795
4759.00,1.1794
4758.00,1.1794
4757.00,1.1792
