Created as New Dataset,Sample 032 By Administrator Date Monday, February 10 2020
cm-1,A
6000.00,1.1484
5999.00,1.1484
5998.00,1.1484
5997.00,1.1484
5996.00,1.1484
5995.00,1.1484
5994.00,1.1485
5993.00,1.1485
5992.00,1.1484
5991.00,1.1484
5990.00,1.1483
5989.00,1.1482
5988.00,1.1482
5987.00,1.1482
5986.00,1.1482
5985.00,1.1482
5984.00,1.1483
5983.00,1.1483
5982.00,1.1484
5981.00,1.1485
5980.00,1.1486
5979.00,1.1487
5978.00,1.1486
5977.00,1.1486
5976.00,1.1486
5975.00,1.1486
5974.00,1.1485
5973.00,1.1484
5972.00,1.1483
5971.00,1.1483
5970.00,1.1482
5969.00,1.1481
5968.00,1.1481
5967.00,1.1481
5966.00,1.1481
5965.00,1.1480
5964.00,1.1480
5963.00,1.1480
5962.00,1.1480
5961.00,1.1480
5960.00,1.1481
5959.00,1.1482
5958.00,1.1483
5957.00,1.1483
5956.00,1.1483
5955.00,1.1482
5954.00,1.1481
5953.00,1.1480
5952.00,1.1480
5951.00,1.1480
5950.00,1.1480
5949.00,1.1480
5948.00,1.1481
5947.00,1.1481
5946.00,1.1481
5945.00,1.1481
5944.00,1.1480
5943.00,1.1480
5942.00,1.1480
5941.00,1.1479
5940.00,1.1478
5939.00,1.1479
5938.00,1.1479
5937.00,1.1480
5936.00,1.1481
5935.00,1.1483
5934.00,1.1484
5933.00,1.1484
5932.00,1.1483
5931.00,1.1483
5930.00,1.1481
5929.00,1.1480
5928.00,1.1479
5927.00,1.1478
5926.00,1.1477
5925.00,1.1477
5924.00,1.1476
5923.00,1.1476
5922.00,1.1476
5921.00,1.1476
5920.00,1.1477
5919.00,1.1477
5918.00,1.1477
5917.00,1.1476
5916.00,1.1475
5915.00,1.1474
5914.00,1.1473
5913.00,1.1472
5912.00,1.1472
5911.00,1.1473
5910.00,1.1475
5909.00,1.1476
5908.00,1.1477
5907.00,1.1477
5906.00,1.1478
5905.00,1.1478
5904.00,1.1479
5903.00,1.1479
5902.00,1.1479
5901.00,1.1479
5900.00,1.1479
5899.00,1.1479
5898.00,1.1478
5897.00,1.1476
5896.00,1.1475
5895.00,1.1474
5894.00,1.1474
5893.00,1.1473
5892.00,1.1473
5891.00,1.1474
5890.00,1.1475
5889.00,1.1475
5888.00,1.1474
5887.00,1.1474
5886.00,1.1474
5885.00,1.1474
5884.00,1.1474
5883.00,1.1474
5882.00,1.1473
5881.00,1.1473
5880.00,1.1472
5879.00,1.1472
5878.00,1.1471
5877.00,1.1470
5876.00,1.1470
5875.00,1.1469
5874.00,1.1469
5873.00,1.1468
5872.00,1.1469
5871.00,1.1470
5870.00,1.1472
5869.00,1.1474
5868.00,1.1475
5867.00,1.1475
5866.00,1.1475
5865.00,1.1473
5864.00,1.1472
5863.00,1.1471
5862.00,1.1470
5861.00,1.1470
5860.00,1.1470
5859.00,1.1469
5858.00,1.1468
5857.00,1.1467
5856.00,1.1467
5855.00,1.1467
5854.00,1.1467
5853.00,1.1468
5852.00,1.1469
5851.00,1.1470
5850.00,1.1470
5849.00,1.1470
5848.00,1.1469
5847.00,1.1468
5846.00,1.1468
5845.00,1.1468
5844.00,1.1468
5843.00,1.1469
5842.00,1.1469
5841.00,1.1469
5840.00,1.1468
5839.00,1.1469
5838.00,1.1468
5837.00,1.1469
5836.00,1.1469
5835.00,1.1470
5834.00,1.1471
5833.00,1.1472
5832.00,1.1472
5831.00,1.1472
5830.00,1.1471
5829.00,1.1471
5828.00,1.1471
5827.00,1.1471
5826.00,1.1471
5825.00,1.1471
5824.00,1.1470
5823.00,1.1470
5822.00,1.1469
5821.00,1.1469
5820.00,1.1469
5819.00,1.1469
5818.00,1.1469
5817.00,1.1469
5816.00,1.1468
5815.00,1.1468
5814.00,1.1468
5813.00,1.1468
5812.00,1.1468
5811.00,1.1469
5810.00,1.1469
5809.00,1.1469
5808.00,1.1468
5807.00,1.1468
5806.00,1.1469
5805.00,1.1469
5804.00,1.1470
5803.00,1.1470
5802.00,1.1469
5801.00,1.1468
5800.00,1.1467
5799.00,1.1467
5798.00,1.1467
5797.00,1.1468
5796.00,1.1469
5795.00,1.1470
5794.00,1.1471
5793.00,1.1471
5792.00,1.1471
5791.00,1.1471
5790.00,1.1470
5789.00,1.1470
5788.00,1.1469
5787.00,1.1469
5786.00,1.1468
5785.00,1.1468
5784.00,1.1467
5783.00,1.1467
5782.00,1.1467
5781.00,1.1467
5780.00,1.1467
5779.00,1.1468
5778.00,1.1468
5777.00,1.1467
5776.00,1.1467
5775.00,1.1466
5774.00,1.1464
5773.00,1.1463
5772.00,1.1463
5771.00,1.1463
5770.00,1.1463
5769.00,1.1465
5768.00,1.1467
5767.00,1.1468
5766.00,1.1469
5765.00,1.1469
5764.00,1.1469
5763.00,1.1469
5762.00,1.1468
5761.00,1.1467
5760.00,1.1466
5759.00,1.1465
5758.00,1.1464
5757.00,1.1464
5756.00,1.1464
5755.00,1.1465
5754.00,1.1464
5753.00,1.1464
5752.00,1.1464
5751.00,1.1464
5750.00,1.1464
5749.00,1.1463
5748.00,1.1462
5747.00,1.1463
5746.00,1.1463
5745.00,1.1462
5744.00,1.1462
5743.00,1.1462
5742.00,1.1462
5741.00,1.1462
5740.00,1.1462
5739.00,1.1463
5738.00,1.1464
5737.00,1.1464
5736.00,1.1465
5735.00,1.1465
5734.00,1.1465
5733.00,1.1465
5732.00,1.1465
5731.00,1.1465
5730.00,1.1465
5729.00,1.1464
5728.00,1.1464
5727.00,1.1464
5726.00,1.1464
5725.00,1.1464
5724.00,1.1464
5723.00,1.1465
5722.00,1.1465
5721.00,1.1464
5720.00,1.1462
5719.00,1.1462
5718.00,1.1462
5717.00,1.1463
5716.00,1.1464
5715.00,1.1465
5714.00,1.1465
5713.00,1.1465
5712.00,1.1465
5711.00,1.1464
5710.00,1.1463
5709.00,1.1462
5708.00,1.1462
5707.00,1.1462
5706.00,1.1462
5705.00,1.1461
5704.00,1.1462
5703.00,1.1462
5702.00,1.1462
5701.00,1.1462
5700.00,1.1462
5699.00,1.1463
5698.00,1.1463
5697.00,1.1463
5696.00,1.1463
5695.00,1.1463
5694.00,1.1463
5693.00,1.1463
5692.00,1.1463
5691.00,1.1464
5690.00,1.1464
5689.00,1.1464
5688.00,1.1464
5687.00,1.1464
5686.00,1.1463
5685.00,1.1462
5684.00,1.1461
5683.00,1.1461
5682.00,1.1460
5681.00,1.1460
5680.00,1.1460
5679.00,1.1461
5678.00,1.1461
5677.00,1.1460
5676.00,1.1459
5675.00,1.1459
5674.00,1.1458
5673.00,1.1457
5672.00,1.1457
5671.00,1.1458
5670.00,1.1459
5669.00,1.1460
5668.00,1.1461
5667.00,1.1461
5666.00,1.1461
5665.00,1.1459
5664.00,1.1458
5663.00,1.1458
5662.00,1.1457
5661.00,1.1458
5660.00,1.1459
5659.00,1.1460
5658.00,1.1462
5657.00,1.1462
5656.00,1.1462
5655.00,1.1461
5654.00,1.1460
5653.00,1.1460
5652.00,1.1459
5651.00,1.1459
5650.00,1.1460
5649.00,1.1460
5648.00,1.1461
5647.00,1.1462
5646.00,1.1462
5645.00,1.1462
5644.00,1.1462
5643.00,1.1462
5642.00,1.1461
5641.00,1.1461
5640.00,1.1461
5639.00,1.1461
5638.00,1.1461
5637.00,1.1461
5636.00,1.1461
5635.00,1.1461
5634.00,1.1461
5633.00,1.1460
5632.00,1.1460
5631.00,1.1460
5630.00,1.1459
5629.00,1.1459
5628.00,1.1459
5627.00,1.1460
5626.00,1.1460
5625.00,1.1461
5624.00,1.1461
5623.00,1.1461
5622.00,1.1461
5621.00,1.1460
5620.00,1.1460
5619.00,1.1460
5618.00,1.1459
5617.00,1.1459
5616.00,1.1459
5615.00,1.1459
5614.00,1.1460
5613.00,1.1460
5612.00,1.1460
5611.00,1.1460
5610.00,1.1460
5609.00,1.1459
5608.00,1.1459
5607.00,1.1459
5606.00,1.1459
5605.00,1.1458
5604.00,1.1458
5603.00,1.1458
5602.00,1.1458
5601.00,1.1458
5600.00,1.1459
5599.00,1.1460
5598.00,1.1460
5597.00,1.1460
5596.00,1.1460
5595.00,1.1459
5594.00,1.1458
5593.00,1.1456
5592.00,1.1455
5591.00,1.1455
5590.00,1.1455
5589.00,1.1456
5588.00,1.1456
5587.00,1.1457
5586.00,1.1458
5585.00,1.1458
5584.00,1.1458
5583.00,1.1458
5582.00,1.1458
5581.00,1.1458
5580.00,1.1457
5579.00,1.1457
5578.00,1.1455
5577.00,1.1454
5576.00,1.1453
5575.00,1.1452
5574.00,1.1453
5573.00,1.1453
5572.00,1.1455
5571.00,1.1457
5570.00,1.1458
5569.00,1.1459
5568.00,1.1459
5567.00,1.1458
5566.00,1.1458
5565.00,1.1456
5564.00,1.1455
5563.00,1.1455
5562.00,1.1455
5561.00,1.1455
5560.00,1.1455
5559.00,1.1455
5558.00,1.1455
5557.00,1.1455
5556.00,1.1456
5555.00,1.1457
5554.00,1.1457
5553.00,1.1456
5552.00,1.1456
5551.00,1.1457
5550.00,1.1457
5549.00,1.1457
5548.00,1.1456
5547.00,1.1456
5546.00,1.1455
5545.00,1.1453
5544.00,1.1452
5543.00,1.1452
5542.00,1.1453
5541.00,1.1454
5540.00,1.1455
5539.00,1.1456
5538.00,1.1456
5537.00,1.1456
5536.00,1.1456
5535.00,1.1455
5534.00,1.1455
5533.00,1.1454
5532.00,1.1454
5531.00,1.1454
5530.00,1.1455
5529.00,1.1454
5528.00,1.1454
5527.00,1.1454
5526.00,1.1454
5525.00,1.1454
5524.00,1.1454
5523.00,1.1454
5522.00,1.1454
5521.00,1.1454
5520.00,1.1455
5519.00,1.1455
5518.00,1.1455
5517.00,1.1454
5516.00,1.1454
5515.00,1.1453
5514.00,1.1453
5513.00,1.1452
5512.00,1.1452
5511.00,1.1452
5510.00,1.1452
5509.00,1.1452
5508.00,1.1451
5507.00,1.1451
5506.00,1.1452
5505.00,1.1452
5504.00,1.1452
5503.00,1.1453
5502.00,1.1453
5501.00,1.1453
5500.00,1.1453
5499.00,1.1453
5498.00,1.1453
5497.00,1.1453
5496.00,1.1452
5495.00,1.1451
5494.00,1.1450
5493.00,1.1449
5492.00,1.1449
5491.00,1.1450
5490.00,1.1450
5489.00,1.1451
5488.00,1.1451
5487.00,1.1451
5486.00,1.1451
5485.00,1.1452
5484.00,1.1452
5483.00,1.1452
5482.00,1.1452
5481.00,1.1451
5480.00,1.1449
5479.00,1.1449
5478.00,1.1449
5477.00,1.1449
5476.00,1.1449
5475.00,1.1450
5474.00,1.1450
5473.00,1.1450
5472.00,1.1449
5471.00,1.1448
5470.00,1.1447
5469.00,1.1446
5468.00,1.1446
5467.00,1.1445
5466.00,1.1444
5465.00,1.1444
5464.00,1.1445
5463.00,1.1445
5462.00,1.1445
5461.00,1.1445
5460.00,1.1446
5459.00,1.1447
5458.00,1.1447
5457.00,1.1447
5456.00,1.1447
5455.00,1.1447
5454.00,1.1446
5453.00,1.1446
5452.00,1.1445
5451.00,1.1444
5450.00,1.1444
5449.00,1.1444
5448.00,1.1445
5447.00,1.1445
5446.00,1.1444
5445.00,1.1444
5444.00,1.1445
5443.00,1.1445
5442.00,1.1445
5441.00,1.1444
5440.00,1.1445
5439.00,1.1445
5438.00,1.1444
5437.00,1.1443
5436.00,1.1441
5435.00,1.1441
5434.00,1.1440
5433.00,1.1441
5432.00,1.1441
5431.00,1.1442
5430.00,1.1442
5429.00,1.1442
5428.00,1.1442
5427.00,1.1443
5426.00,1.1443
5425.00,1.1444
5424.00,1.1445
5423.00,1.1447
5422.00,1.1448
5421.00,1.1448
5420.00,1.1447
5419.00,1.1446
5418.00,1.1444
5417.00,1.1443
5416.00,1.1441
5415.00,1.1439
5414.00,1.1439
5413.00,1.1439
5412.00,1.1439
5411.00,1.1439
5410.00,1.1439
5409.00,1.1440
5408.00,1.1441
5407.00,1.1443
5406.00,1.1444
5405.00,1.1445
5404.00,1.1446
5403.00,1.1447
5402.00,1.1446
5401.00,1.1445
5400.00,1.1444
5399.00,1.1444
5398.00,1.1443
5397.00,1.1443
5396.00,1.1442
5395.00,1.1442
5394.00,1.1441
5393.00,1.1439
5392.00,1.1438
5391.00,1.1439
5390.00,1.1439
5389.00,1.1440
5388.00,1.1440
5387.00,1.1441
5386.00,1.1442
5385.00,1.1442
5384.00,1.1442
5383.00,1.1443
5382.00,1.1442
5381.00,1.1441
5380.00,1.1440
5379.00,1.1440
5378.00,1.1439
5377.00,1.1439
5376.00,1.1439
5375.00,1.1440
5374.00,1.1440
5373.00,1.1440
5372.00,1.1441
5371.00,1.1442
5370.00,1.1443
5369.00,1.1443
5368.00,1.1443
5367.00,1.1444
5366.00,1.1444
5365.00,1.1444
5364.00,1.1444
5363.00,1.1445
5362.00,1.1445
5361.00,1.1445
5360.00,1.1444
5359.00,1.1443
5358.00,1.1442
5357.00,1.1441
5356.00,1.1441
5355.00,1.1441
5354.00,1.1440
5353.00,1.1441
5352.00,1.1441
5351.00,1.1440
5350.00,1.1440
5349.00,1.1439
5348.00,1.1439
5347.00,1.1439
5346.00,1.1439
5345.00,1.1438
5344.00,1.1438
5343.00,1.1438
5342.00,1.1438
5341.00,1.1438
5340.00,1.1437
5339.00,1.1438
5338.00,1.1438
5337.00,1.1439
5336.00,1.1439
5335.00,1.1441
5334.00,1.1442
5333.00,1.1442
5332.00,1.1443
5331.00,1.1444
5330.00,1.1444
5329.00,1.1444
5328.00,1.1443
5327.00,1.1443
5326.00,1.1445
5325.00,1.1446
5324.00,1.1448
5323.00,1.1449
5322.00,1.1450
5321.00,1.1450
5320.00,1.1449
5319.00,1.1448
5318.00,1.1447
5317.00,1.1446
5316.00,1.1446
5315.00,1.1447
5314.00,1.1448
5313.00,1.1449
5312.00,1.1449
5311.00,1.1449
5310.00,1.1448
5309.00,1.1447
5308.00,1.1446
5307.00,1.1445
5306.00,1.1446
5305.00,1.1447
5304.00,1.1447
5303.00,1.1448
5302.00,1.1449
5301.00,1.1450
5300.00,1.1451
5299.00,1.1452
5298.00,1.1452
5297.00,1.1452
5296.00,1.1452
5295.00,1.1451
5294.00,1.1450
5293.00,1.1450
5292.00,1.1450
5291.00,1.1450
5290.00,1.1451
5289.00,1.1452
5288.00,1.1452
5287.00,1.1452
5286.00,1.1452
5285.00,1.1451
5284.00,1.1451
5283.00,1.1451
5282.00,1.1450
5281.00,1.1451
5280.00,1.1451
5279.00,1.1453
5278.00,1.1454
5277.00,1.1455
5276.00,1.1455
5275.00,1.1456
5274.00,1.1456
5273.00,1.1455
5272.00,1.1455
5271.00,1.1454
5270.00,1.1454
5269.00,1.1453
5268.00,1.1452
5267.00,1.1452
5266.00,1.1451
5265.00,1.1451
5264.00,1.1451
5263.00,1.1452
5262.00,1.1453
5261.00,1.1453
5260.00,1.1454
5259.00,1.1456
5258.00,1.1457
5257.00,1.1458
5256.00,1.1459
5255.00,1.1460
5254.00,1.1460
5253.00,1.1460
5252.00,1.1460
5251.00,1.1460
5250.00,1.1460
5249.00,1.1460
5248.00,1.1460
5247.00,1.1461
5246.00,1.1462
5245.00,1.1463
5244.00,1.1464
5243.00,1.1466
5242.00,1.1467
5241.00,1.1467
5240.00,1.1468
5239.00,1.1469
5238.00,1.1469
5237.00,1.1469
5236.00,1.1470
5235.00,1.1470
5234.00,1.1470
5233.00,1.1470
5232.00,1.1470
5231.00,1.1470
5230.00,1.1470
5229.00,1.1471
5228.00,1.1471
5227.00,1.1472
5226.00,1.1472
5225.00,1.1473
5224.00,1.1473
5223.00,1.1474
5222.00,1.1475
5221.00,1.1476
5220.00,1.1477
5219.00,1.1478
5218.00,1.1479
5217.00,1.1480
5216.00,1.1481
5215.00,1.1481
5214.00,1.1481
5213.00,1.1481
5212.00,1.1481
5211.00,1.1480
5210.00,1.1480
5209.00,1.1480
5208.00,1.1480
5207.00,1.1480
5206.00,1.1480
5205.00,1.1481
5204.00,1.1482
5203.00,1.1484
5202.00,1.1485
5201.00,1.1486
5200.00,1.1487
5199.00,1.1488
5198.00,1.1489
5197.00,1.1490
5196.00,1.1491
5195.00,1.1491
5194.00,1.1491
5193.00,1.1491
5192.00,1.1491
5191.00,1.1492
5190.00,1.1493
5189.00,1.1494
5188.00,1.1495
5187.00,1.1496
5186.00,1.1495
5185.00,1.1495
5184.00,1.1495
5183.00,1.1495
5182.00,1.1495
5181.00,1.1496
5180.00,1.1498
5179.00,1.1499
5178.00,1.1500
5177.00,1.1501
5176.00,1.1501
5175.00,1.1502
5174.00,1.1503
5173.00,1.1504
5172.00,1.1505
5171.00,1.1505
5170.00,1.1505
5169.00,1.1504
5168.00,1.1504
5167.00,1.1504
5166.00,1.1505
5165.00,1.1506
5164.00,1.1507
5163.00,1.1508
5162.00,1.1510
5161.00,1.1510
5160.00,1.1511
5159.00,1.1512
5158.00,1.1513
5157.00,1.1514
5156.00,1.1514
5155.00,1.1514
5154.00,1.1514
5153.00,1.1514
5152.00,1.1514
5151.00,1.1515
5150.00,1.1515
5149.00,1.1516
5148.00,1.1516
5147.00,1.1517
5146.00,1.1517
5145.00,1.1517
5144.00,1.1517
5143.00,1.1518
5142.00,1.1518
5141.00,1.1518
5140.00,1.1519
5139.00,1.1519
5138.00,1.1519
5137.00,1.1520
5136.00,1.1520
5135.00,1.1521
5134.00,1.1522
5133.00,1.1522
5132.00,1.1523
5131.00,1.1524
5130.00,1.1524
5129.00,1.1524
5128.00,1.1524
5127.00,1.1525
5126.00,1.1525
5125.00,1.1526
5124.00,1.1526
5123.00,1.1527
5122.00,1.1527
5121.00,1.1527
5120.00,1.1527
5119.00,1.1527
5118.00,1.1527
5117.00,1.1527
5116.00,1.1527
5115.00,1.1527
5114.00,1.1526
5113.00,1.1526
5112.00,1.1526
5111.00,1.1527
5110.00,1.1528
5109.00,1.1529
5108.00,1.1529
5107.00,1.1530
5106.00,1.1529
5105.00,1.1529
5104.00,1.1529
5103.00,1.1529
5102.00,1.1529
5101.00,1.1529
5100.00,1.1529
5099.00,1.1529
5098.00,1.1528
5097.00,1.1528
5096.00,1.1528
5095.00,1.1528
5094.00,1.1529
5093.00,1.1529
5092.00,1.1530
5091.00,1.1530
5090.00,1.1530
5089.00,1.1529
5088.00,1.1528
5087.00,1.1528
5086.00,1.1528
5085.00,1.1529
5084.00,1.1529
5083.00,1.1530
5082.00,1.1531
5081.00,1.1531
5080.00,1.1530
5079.00,1.1530
5078.00,1.1530
5077.00,1.1530
5076.00,1.1531
5075.00,1.1532
5074.00,1.1532
5073.00,1.1533
5072.00,1.1533
5071.00,1.1533
5070.00,1.1532
5069.00,1.1532
5068.00,1.1532
5067.00,1.1533
5066.00,1.1533
5065.00,1.1533
5064.00,1.1534
5063.00,1.1534
5062.00,1.1533
5061.00,1.1533
5060.00,1.1533
5059.00,1.1532
5058.00,1.1532
5057.00,1.1532
5056.00,1.1532
5055.00,1.1533
5054.00,1.1533
5053.00,1.1533
5052.00,1.1534
5051.00,1.1534
5050.00,1.1535
5049.00,1.1535
5048.00,1.1535
5047.00,1.1536
5046.00,1.1536
5045.00,1.1536
5044.00,1.1536
5043.00,1.1535
5042.00,1.1535
5041.00,1.1536
5040.00,1.1536
5039.00,1.1536
5038.00,1.1535
5037.00,1.1535
5036.00,1.1535
5035.00,1.1535
5034.00,1.1535
5033.00,1.1535
5032.00,1.1534
5031.00,1.1534
5030.00,1.1533
5029.00,1.1533
5028.00,1.1533
5027.00,1.1533
5026.00,1.1534
5025.00,1.1535
5024.00,1.1535
5023.00,1.1535
5022.00,1.1535
5021.00,1.1535
5020.00,1.1535
5019.00,1.1534
5018.00,1.1533
5017.00,1.1533
5016.00,1.1533
5015.00,1.1533
5014.00,1.1533
5013.00,1.1533
5012.00,1.1533
5011.00,1.1533
5010.00,1.1533
5009.00,1.1533
5008.00,1.1532
5007.00,1.1532
5006.00,1.1531
5005.00,1.1531
5004.00,1.1531
5003.00,1.1531
5002.00,1.1531
5001.00,1.1530
5000.00,1.1530
4999.00,1.1530
4998.00,1.1530
4997.00,1.1530
4996.00,1.1532
4995.00,1.1533
4994.00,1.1534
4993.00,1.1534
4992.00,1.1533
4991.00,1.1533
4990.00,1.1532
4989.00,1.1531
4988.00,1.1530
4987.00,1.1530
4986.00,1.1530
4985.00,1.1530
4984.00,1.1530
4983.00,1.1531
4982.00,1.1531
4981.00,1.1531
4980.00,1.1531
4979.00,1.1530
4978.00,1.1530
4977.00,1.1529
4976.00,1.1529
4975.00,1.1528
4974.00,1.1528
4973.00,1.1528
4972.00,1.1528
4971.00,1.1528
4970.00,1.1529
4969.00,1.1530
4968.00,1.1530
4967.00,1.1531
4966.00,1.1530
4965.00,1.1530
4964.00,1.1530
4963.00,1.1530
4962.00,1.1530
4961.00,1.1530
4960.00,1.1530
4959.00,1.1530
4958.00,1.1529
4957.00,1.1528
4956.00,1.1528
4955.00,1.1528
4954.00,1.1529
4953.00,1.1529
4952.00,1.1529
4951.00,1.1530
4950.00,1.1530
4949.00,1.1529
4948.00,1.1529
4947.00,1.1528
4946.00,1.1528
4945.00,1.1528
4944.00,1.1527
4943.00,1.1527
4942.00,1.1527
4941.00,1.1527
4940.00,1.1527
4939.00,1.1527
4938.00,1.1527
4937.00,1.1526
4936.00,1.1526
4935.00,1.1526
4934.00,1.1526
4933.00,1.1526
4932.00,1.1525
4931.00,1.1525
4930.00,1.1524
4929.00,1.1524
4928.00,1.1524
4927.00,1.1524
4926.00,1.1525
4925.00,1.1525
4924.00,1.1525
4923.00,1.1525
4922.00,1.1524
4921.00,1.1524
4920.00,1.1523
4919.00,1.1522
4918.00,1.1522
4917.00,1.1522
4916.00,1.1522
4915.00,1.1522
4914.00,1.1522
4913.00,1.1522
4912.00,1.1522
4911.00,1.1521
4910.00,1.1520
4909.00,1.1520
4908.00,1.1519
4907.00,1.1519
4906.00,1.1519
4905.00,1.1519
4904.00,1.1519
4903.00,1.1520
4902.00,1.1520
4901.00,1.1520
4900.00,1.1520
4899.00,1.1520
4898.00,1.1520
4897.00,1.1519
4896.00,1.1518
4895.00,1.1517
4894.00,1.1517
4893.00,1.1516
4892.00,1.1517
4891.00,1.1517
4890.00,1.1517
4889.00,1.1517
4888.00,1.1517
4887.00,1.1517
4886.00,1.1517
4885.00,1.1517
4884.00,1.1517
4883.00,1.1517
4882.00,1.1516
4881.00,1.1515
4880.00,1.1515
4879.00,1.1515
4878.00,1.1515
4877.00,1.1514
4876.00,1.1514
4875.00,1.1513
4874.00,1.1514
4873.00,1.1514
4872.00,1.1515
4871.00,1.1515
4870.00,1.1515
4869.00,1.1515
4868.00,1.1514
4867.00,1.1513
4866.00,1.1512
4865.00,1.1512
4864.00,1.1511
4863.00,1.1511
4862.00,1.1511
4861.00,1.1511
4860.00,1.1511
4859.00,1.1511
4858.00,1.1511
4857.00,1.1510
4856.00,1.1510
4855.00,1.1510
4854.00,1.1510
4853.00,1.1510
4852.00,1.1510
4851.00,1.1509
4850.00,1.1509
4849.00,1.1508
4848.00,1.1508
4847.00,1.1508
4846.00,1.1508
4845.00,1.1508
4844.00,1.1507
4843.00,1.1507
4842.00,1.1507
4841.00,1.1507
4840.00,1.1507
4839.00,1.1506
4838.00,1.1506
4837.00,1.1505
4836.00,1.1505
4835.00,1.1505
4834.00,1.1505
4833.00,1.1504
4832.00,1.1504
4831.00,1.1504
4830.00,1.1504
4829.00,1.1505
4828.00,1.1505
4827.00,1.1505
4826.00,1.1504
4825.00,1.1504
4824.00,1.1503
4823.00,1.1502
4822.00,1.1502
4821.00,1.1501
4820.00,1.1501
4819.00,1.1500
4818.00,1.1500
4817.00,1.1499
4816.00,1.1498
4815.00,1.1498
4814.00,1.1497
4813.00,1.1497
4812.00,1.1496
4811.00,1.1496
4810.00,1.1497
4809.00,1.1497
4808.00,1.1497
4807.00,1.1497
4806.00,1.1496
4805.00,1.1496
4804.00,1.1495
4803.00,1.1494
4802.00,1.1494
4801.00,1.1494
4800.00,1.1494
4799.00,1.1494
4798.00,1.1493
4797.00,1.1493
4796.00,1.1493
4795.00,1.1493
4794.00,1.1492
4793.00,1.1492
4792.00,1.1491
4791.00,1.1491
4790.00,1.1490
4789.00,1.1490
4788.00,1.1490
4787.00,1.1490
4786.00,1.1490
4785.00,1.1490
4784.00,1.1491
4783.00,1.1490
4782.00,1.1490
4781.00,1.1489
4780.00,1.1488
4779.00,1.1488
4778.00,1.1487
4777.00,1.1487
4776.00,1.1486
4775.00,1.1486
4774.00,1.1486
4773.00,1.1486
4772.00,1.1485
4771.00,1.1484
4770.00,1.1484
4769.00,1.1483
4768.00,1.1483
4767.00,1.1483
4766.00,1.1483
4765.00,1.1483
4764.00,1.1482
4763.00,1.1481
4762.00,1.1481
4761.00,1.1480
4760.00,1.1479
4759.00,1.1479
4758.00,1.1478
4757.00,1.1477
