PE IR       SUBTECH     SPECTRUM    ASCII       PEDS        4.00        
   -1
TE109A_061_80K_after_125K_SB.ASC
20/04/21
18:19:12.00
20/04/21
18:19:12.00
Administrator
TE109A, Tuesday, April 21 2020, 061.
1000.000000
#HDR
-1
-1
#GR
cm-1
EGY
1.0
0.0
6000.000000
-2.000000
2501
8
10.969348
1.152920
#DATA
6000.000000	1.871486
5998.000000	1.873284
5996.000000	1.876763
5994.000000	1.880979
5992.000000	1.884571
5990.000000	1.887626
5988.000000	1.890523
5986.000000	1.893412
5984.000000	1.897374
5982.000000	1.901244
5980.000000	1.905755
5978.000000	1.910027
5976.000000	1.914341
5974.000000	1.919188
5972.000000	1.923920
5970.000000	1.928357
5968.000000	1.932758
5966.000000	1.937213
5964.000000	1.940664
5962.000000	1.943016
5960.000000	1.945516
5958.000000	1.948878
5956.000000	1.954258
5954.000000	1.959986
5952.000000	1.964245
5950.000000	1.967278
5948.000000	1.969616
5946.000000	1.972982
5944.000000	1.978025
5942.000000	1.982599
5940.000000	1.986834
5938.000000	1.990491
5936.000000	1.994916
5934.000000	1.999381
5932.000000	2.002502
5930.000000	2.005943
5928.000000	2.010879
5926.000000	2.016869
5924.000000	2.021735
5922.000000	2.024944
5920.000000	2.027441
5918.000000	2.032137
5916.000000	2.036691
5914.000000	2.040805
5912.000000	2.044105
5910.000000	2.046328
5908.000000	2.051188
5906.000000	2.055882
5904.000000	2.059998
5902.000000	2.063243
5900.000000	2.066581
5898.000000	2.071907
5896.000000	2.077086
5894.000000	2.081690
5892.000000	2.085303
5890.000000	2.088751
5888.000000	2.092660
5886.000000	2.096702
5884.000000	2.099974
5882.000000	2.103787
5880.000000	2.107420
5878.000000	2.112667
5876.000000	2.118230
5874.000000	2.123663
5872.000000	2.128390
5870.000000	2.131507
5868.000000	2.135027
5866.000000	2.139827
5864.000000	2.144744
5862.000000	2.147781
5860.000000	2.149788
5858.000000	2.153681
5856.000000	2.159994
5854.000000	2.165882
5852.000000	2.169664
5850.000000	2.173028
5848.000000	2.177386
5846.000000	2.183271
5844.000000	2.189664
5842.000000	2.196206
5840.000000	2.201399
5838.000000	2.205197
5836.000000	2.207296
5834.000000	2.210219
5832.000000	2.213940
5830.000000	2.218209
5828.000000	2.223075
5826.000000	2.228221
5824.000000	2.235052
5822.000000	2.242587
5820.000000	2.248076
5818.000000	2.251731
5816.000000	2.253900
5814.000000	2.258286
5812.000000	2.263741
5810.000000	2.268166
5808.000000	2.270457
5806.000000	2.272587
5804.000000	2.276527
5802.000000	2.282835
5800.000000	2.289272
5798.000000	2.295123
5796.000000	2.299846
5794.000000	2.304309
5792.000000	2.309202
5790.000000	2.314333
5788.000000	2.319416
5786.000000	2.324263
5784.000000	2.328515
5782.000000	2.332164
5780.000000	2.335387
5778.000000	2.338298
5776.000000	2.342121
5774.000000	2.348156
5772.000000	2.354994
5770.000000	2.361895
5768.000000	2.366395
5766.000000	2.370975
5764.000000	2.377068
5762.000000	2.382036
5760.000000	2.385626
5758.000000	2.389104
5756.000000	2.394147
5754.000000	2.399596
5752.000000	2.404636
5750.000000	2.409719
5748.000000	2.415789
5746.000000	2.421510
5744.000000	2.426456
5742.000000	2.430403
5740.000000	2.434108
5738.000000	2.437146
5736.000000	2.442643
5734.000000	2.449176
5732.000000	2.454608
5730.000000	2.458886
5728.000000	2.462569
5726.000000	2.467505
5724.000000	2.472025
5722.000000	2.475938
5720.000000	2.479973
5718.000000	2.483738
5716.000000	2.487715
5714.000000	2.493261
5712.000000	2.500101
5710.000000	2.506665
5708.000000	2.511280
5706.000000	2.516094
5704.000000	2.521195
5702.000000	2.526104
5700.000000	2.530569
5698.000000	2.534512
5696.000000	2.539123
5694.000000	2.544216
5692.000000	2.550493
5690.000000	2.557269
5688.000000	2.562149
5686.000000	2.564913
5684.000000	2.568006
5682.000000	2.573298
5680.000000	2.580385
5678.000000	2.586741
5676.000000	2.591614
5674.000000	2.596605
5672.000000	2.601503
5670.000000	2.607440
5668.000000	2.613852
5666.000000	2.618934
5664.000000	2.621628
5662.000000	2.625164
5660.000000	2.630922
5658.000000	2.636774
5656.000000	2.640490
5654.000000	2.644818
5652.000000	2.651710
5650.000000	2.659559
5648.000000	2.666094
5646.000000	2.671164
5644.000000	2.676212
5642.000000	2.681176
5640.000000	2.685980
5638.000000	2.690243
5636.000000	2.694308
5634.000000	2.700460
5632.000000	2.706819
5630.000000	2.712485
5628.000000	2.717773
5626.000000	2.724164
5624.000000	2.731585
5622.000000	2.737728
5620.000000	2.741988
5618.000000	2.744710
5616.000000	2.748915
5614.000000	2.753973
5612.000000	2.759401
5610.000000	2.763511
5608.000000	2.767524
5606.000000	2.772268
5604.000000	2.777328
5602.000000	2.783392
5600.000000	2.788769
5598.000000	2.794297
5596.000000	2.799018
5594.000000	2.805056
5592.000000	2.810748
5590.000000	2.815791
5588.000000	2.821309
5586.000000	2.828451
5584.000000	2.833997
5582.000000	2.839027
5580.000000	2.843784
5578.000000	2.849370
5576.000000	2.854565
5574.000000	2.859659
5572.000000	2.866146
5570.000000	2.873597
5568.000000	2.879472
5566.000000	2.883041
5564.000000	2.886477
5562.000000	2.891320
5560.000000	2.898222
5558.000000	2.905129
5556.000000	2.910698
5554.000000	2.915088
5552.000000	2.919368
5550.000000	2.925632
5548.000000	2.932629
5546.000000	2.938016
5544.000000	2.942497
5542.000000	2.947646
5540.000000	2.953986
5538.000000	2.960465
5536.000000	2.966239
5534.000000	2.971031
5532.000000	2.976243
5530.000000	2.982845
5528.000000	2.988150
5526.000000	2.991594
5524.000000	2.997142
5522.000000	3.004148
5520.000000	3.009477
5518.000000	3.012727
5516.000000	3.017319
5514.000000	3.023860
5512.000000	3.028550
5510.000000	3.032121
5508.000000	3.036316
5506.000000	3.042483
5504.000000	3.049958
5502.000000	3.056456
5500.000000	3.062363
5498.000000	3.067716
5496.000000	3.073573
5494.000000	3.078622
5492.000000	3.083319
5490.000000	3.088935
5488.000000	3.094952
5486.000000	3.101003
5484.000000	3.106961
5482.000000	3.113593
5480.000000	3.120354
5478.000000	3.124884
5476.000000	3.128109
5474.000000	3.133770
5472.000000	3.141722
5470.000000	3.148900
5468.000000	3.154133
5466.000000	3.159101
5464.000000	3.164379
5462.000000	3.168822
5460.000000	3.174414
5458.000000	3.182215
5456.000000	3.190895
5454.000000	3.197198
5452.000000	3.201855
5450.000000	3.204575
5448.000000	3.208089
5446.000000	3.212868
5444.000000	3.218930
5442.000000	3.225469
5440.000000	3.231711
5438.000000	3.237047
5436.000000	3.242270
5434.000000	3.247014
5432.000000	3.252020
5430.000000	3.257644
5428.000000	3.264240
5426.000000	3.272791
5424.000000	3.279265
5422.000000	3.284094
5420.000000	3.287388
5418.000000	3.290839
5416.000000	3.294606
5414.000000	3.299376
5412.000000	3.306271
5410.000000	3.314124
5408.000000	3.322458
5406.000000	3.329702
5404.000000	3.335091
5402.000000	3.338754
5400.000000	3.342818
5398.000000	3.346762
5396.000000	3.351288
5394.000000	3.357017
5392.000000	3.365298
5390.000000	3.373255
5388.000000	3.379218
5386.000000	3.385440
5384.000000	3.391710
5382.000000	3.399067
5380.000000	3.404770
5378.000000	3.408941
5376.000000	3.411939
5374.000000	3.416325
5372.000000	3.422546
5370.000000	3.430568
5368.000000	3.437672
5366.000000	3.444215
5364.000000	3.450215
5362.000000	3.456691
5360.000000	3.462644
5358.000000	3.467031
5356.000000	3.471340
5354.000000	3.476099
5352.000000	3.482192
5350.000000	3.488991
5348.000000	3.494455
5346.000000	3.498872
5344.000000	3.504420
5342.000000	3.510992
5340.000000	3.517161
5338.000000	3.523529
5336.000000	3.531047
5334.000000	3.538115
5332.000000	3.541595
5330.000000	3.544099
5328.000000	3.548206
5326.000000	3.555578
5324.000000	3.563491
5322.000000	3.569602
5320.000000	3.574768
5318.000000	3.580211
5316.000000	3.586046
5314.000000	3.591549
5312.000000	3.596310
5310.000000	3.600691
5308.000000	3.606715
5306.000000	3.613099
5304.000000	3.619288
5302.000000	3.624157
5300.000000	3.628802
5298.000000	3.633655
5296.000000	3.638731
5294.000000	3.644118
5292.000000	3.650363
5290.000000	3.656683
5288.000000	3.662139
5286.000000	3.666819
5284.000000	3.672152
5282.000000	3.678369
5280.000000	3.684827
5278.000000	3.691677
5276.000000	3.697191
5274.000000	3.701014
5272.000000	3.704880
5270.000000	3.710383
5268.000000	3.716096
5266.000000	3.722103
5264.000000	3.729288
5262.000000	3.735824
5260.000000	3.741534
5258.000000	3.745650
5256.000000	3.749511
5254.000000	3.755333
5252.000000	3.762229
5250.000000	3.767550
5248.000000	3.771969
5246.000000	3.777888
5244.000000	3.784228
5242.000000	3.789395
5240.000000	3.795642
5238.000000	3.803006
5236.000000	3.809460
5234.000000	3.814051
5232.000000	3.817677
5230.000000	3.820780
5228.000000	3.823805
5226.000000	3.829211
5224.000000	3.835216
5222.000000	3.840383
5220.000000	3.844380
5218.000000	3.850458
5216.000000	3.856828
5214.000000	3.862219
5212.000000	3.866911
5210.000000	3.871194
5208.000000	3.873924
5206.000000	3.877417
5204.000000	3.883812
5202.000000	3.891142
5200.000000	3.896579
5198.000000	3.901353
5196.000000	3.906301
5194.000000	3.912722
5192.000000	3.918881
5190.000000	3.923345
5188.000000	3.925894
5186.000000	3.929691
5184.000000	3.936118
5182.000000	3.943373
5180.000000	3.949100
5178.000000	3.953347
5176.000000	3.957791
5174.000000	3.963195
5172.000000	3.969820
5170.000000	3.976290
5168.000000	3.982499
5166.000000	3.987003
5164.000000	3.990307
5162.000000	3.994437
5160.000000	4.000134
5158.000000	4.006074
5156.000000	4.010541
5154.000000	4.013889
5152.000000	4.018124
5150.000000	4.023570
5148.000000	4.028647
5146.000000	4.033053
5144.000000	4.037349
5142.000000	4.042176
5140.000000	4.047267
5138.000000	4.053138
5136.000000	4.058675
5134.000000	4.063629
5132.000000	4.067854
5130.000000	4.072888
5128.000000	4.077875
5126.000000	4.082375
5124.000000	4.086977
5122.000000	4.091823
5120.000000	4.095898
5118.000000	4.099941
5116.000000	4.106702
5114.000000	4.114225
5112.000000	4.120078
5110.000000	4.124540
5108.000000	4.129174
5106.000000	4.134148
5104.000000	4.140147
5102.000000	4.147317
5100.000000	4.154321
5098.000000	4.161267
5096.000000	4.165996
5094.000000	4.168334
5092.000000	4.171284
5090.000000	4.177068
5088.000000	4.184096
5086.000000	4.191059
5084.000000	4.198901
5082.000000	4.205080
5080.000000	4.209038
5078.000000	4.213009
5076.000000	4.219262
5074.000000	4.225274
5072.000000	4.230257
5070.000000	4.235896
5068.000000	4.243384
5066.000000	4.250276
5064.000000	4.254733
5062.000000	4.259204
5060.000000	4.265040
5058.000000	4.272012
5056.000000	4.278492
5054.000000	4.284923
5052.000000	4.291528
5050.000000	4.297460
5048.000000	4.302290
5046.000000	4.307762
5044.000000	4.312980
5042.000000	4.317728
5040.000000	4.323191
5038.000000	4.330321
5036.000000	4.337271
5034.000000	4.342738
5032.000000	4.348856
5030.000000	4.354884
5028.000000	4.360638
5026.000000	4.366263
5024.000000	4.371610
5022.000000	4.377066
5020.000000	4.383882
5018.000000	4.391130
5016.000000	4.397545
5014.000000	4.402644
5012.000000	4.407613
5010.000000	4.412765
5008.000000	4.419263
5006.000000	4.426015
5004.000000	4.431144
5002.000000	4.436138
5000.000000	4.442906
4998.000000	4.451055
4996.000000	4.457456
4994.000000	4.463445
4992.000000	4.470067
4990.000000	4.477075
4988.000000	4.484209
4986.000000	4.492145
4984.000000	4.499179
4982.000000	4.503361
4980.000000	4.508242
4978.000000	4.515226
4976.000000	4.523364
4974.000000	4.531220
4972.000000	4.537946
4970.000000	4.543433
4968.000000	4.549851
4966.000000	4.556413
4964.000000	4.562629
4962.000000	4.569161
4960.000000	4.575954
4958.000000	4.581378
4956.000000	4.587233
4954.000000	4.595094
4952.000000	4.602528
4950.000000	4.609061
4948.000000	4.615424
4946.000000	4.620779
4944.000000	4.623560
4942.000000	4.627349
4940.000000	4.634566
4938.000000	4.643272
4936.000000	4.650515
4934.000000	4.658640
4932.000000	4.667476
4930.000000	4.674635
4928.000000	4.680200
4926.000000	4.685940
4924.000000	4.692047
4922.000000	4.699238
4920.000000	4.707500
4918.000000	4.714341
4916.000000	4.719992
4914.000000	4.727392
4912.000000	4.735651
4910.000000	4.741175
4908.000000	4.745418
4906.000000	4.752368
4904.000000	4.761308
4902.000000	4.768938
4900.000000	4.775081
4898.000000	4.781448
4896.000000	4.787813
4894.000000	4.794293
4892.000000	4.801261
4890.000000	4.808174
4888.000000	4.815981
4886.000000	4.824951
4884.000000	4.832798
4882.000000	4.839335
4880.000000	4.846117
4878.000000	4.853215
4876.000000	4.860076
4874.000000	4.868260
4872.000000	4.877094
4870.000000	4.885037
4868.000000	4.892382
4866.000000	4.899740
4864.000000	4.907476
4862.000000	4.914723
4860.000000	4.920978
4858.000000	4.928254
4856.000000	4.936486
4854.000000	4.944699
4852.000000	4.951289
4850.000000	4.957385
4848.000000	4.963560
4846.000000	4.969815
4844.000000	4.976166
4842.000000	4.982637
4840.000000	4.990355
4838.000000	4.998148
4836.000000	5.006028
4834.000000	5.014563
4832.000000	5.022220
4830.000000	5.028612
4828.000000	5.036320
4826.000000	5.045016
4824.000000	5.051240
4822.000000	5.056512
4820.000000	5.064713
4818.000000	5.074383
4816.000000	5.082013
4814.000000	5.089039
4812.000000	5.096897
4810.000000	5.105920
4808.000000	5.114621
4806.000000	5.122581
4804.000000	5.129437
4802.000000	5.137474
4800.000000	5.145917
4798.000000	5.152945
4796.000000	5.159094
4794.000000	5.167128
4792.000000	5.175989
4790.000000	5.185246
4788.000000	5.194245
4786.000000	5.203249
4784.000000	5.212182
4782.000000	5.221382
4780.000000	5.229393
4778.000000	5.236764
4776.000000	5.244432
4774.000000	5.252858
4772.000000	5.261527
4770.000000	5.270871
4768.000000	5.279968
4766.000000	5.287821
4764.000000	5.294831
4762.000000	5.301739
4760.000000	5.309205
4758.000000	5.317982
4756.000000	5.327995
4754.000000	5.337387
4752.000000	5.345007
4750.000000	5.352621
4748.000000	5.361501
4746.000000	5.369416
4744.000000	5.375306
4742.000000	5.382520
4740.000000	5.392115
4738.000000	5.400834
4736.000000	5.407982
4734.000000	5.415323
4732.000000	5.423602
4730.000000	5.431969
4728.000000	5.440864
4726.000000	5.449693
4724.000000	5.457583
4722.000000	5.464538
4720.000000	5.470360
4718.000000	5.477138
4716.000000	5.486743
4714.000000	5.497754
4712.000000	5.506821
4710.000000	5.515881
4708.000000	5.524554
4706.000000	5.532024
4704.000000	5.539597
4702.000000	5.548883
4700.000000	5.558330
4698.000000	5.566475
4696.000000	5.573089
4694.000000	5.580758
4692.000000	5.589952
4690.000000	5.597717
4688.000000	5.604826
4686.000000	5.614643
4684.000000	5.623772
4682.000000	5.629094
4680.000000	5.635426
4678.000000	5.645126
4676.000000	5.655386
4674.000000	5.664829
4672.000000	5.673091
4670.000000	5.679991
4668.000000	5.686918
4666.000000	5.694937
4664.000000	5.702926
4662.000000	5.710886
4660.000000	5.719588
4658.000000	5.727686
4656.000000	5.733529
4654.000000	5.739620
4652.000000	5.748233
4650.000000	5.757009
4648.000000	5.765055
4646.000000	5.773618
4644.000000	5.781591
4642.000000	5.788032
4640.000000	5.794514
4638.000000	5.802908
4636.000000	5.812198
4634.000000	5.820206
4632.000000	5.826829
4630.000000	5.833612
4628.000000	5.840806
4626.000000	5.847250
4624.000000	5.854519
4622.000000	5.863402
4620.000000	5.871365
4618.000000	5.877462
4616.000000	5.884757
4614.000000	5.894292
4612.000000	5.902755
4610.000000	5.910097
4608.000000	5.918322
4606.000000	5.927216
4604.000000	5.935593
4602.000000	5.944561
4600.000000	5.952374
4598.000000	5.958460
4596.000000	5.965403
4594.000000	5.974878
4592.000000	5.984660
4590.000000	5.993095
4588.000000	6.000412
4586.000000	6.009093
4584.000000	6.018600
4582.000000	6.026879
4580.000000	6.034640
4578.000000	6.043040
4576.000000	6.049759
4574.000000	6.055635
4572.000000	6.063438
4570.000000	6.071024
4568.000000	6.077745
4566.000000	6.086412
4564.000000	6.096168
4562.000000	6.103473
4560.000000	6.109707
4558.000000	6.117509
4556.000000	6.126504
4554.000000	6.134813
4552.000000	6.142783
4550.000000	6.149989
4548.000000	6.155998
4546.000000	6.162756
4544.000000	6.171655
4542.000000	6.180315
4540.000000	6.187114
4538.000000	6.193592
4536.000000	6.200427
4534.000000	6.208198
4532.000000	6.217334
4530.000000	6.226927
4528.000000	6.234329
4526.000000	6.240743
4524.000000	6.247681
4522.000000	6.254571
4520.000000	6.262105
4518.000000	6.271217
4516.000000	6.279612
4514.000000	6.287428
4512.000000	6.296850
4510.000000	6.304759
4508.000000	6.310734
4506.000000	6.319813
4504.000000	6.330696
4502.000000	6.337633
4500.000000	6.343334
4498.000000	6.351877
4496.000000	6.360434
4494.000000	6.367645
4492.000000	6.376663
4490.000000	6.386117
4488.000000	6.392759
4486.000000	6.399228
4484.000000	6.407790
4482.000000	6.415879
4480.000000	6.423501
4478.000000	6.432191
4476.000000	6.439660
4474.000000	6.445974
4472.000000	6.453770
4470.000000	6.461964
4468.000000	6.468734
4466.000000	6.474419
4464.000000	6.482095
4462.000000	6.492455
4460.000000	6.501356
4458.000000	6.508367
4456.000000	6.516255
4454.000000	6.523293
4452.000000	6.529223
4450.000000	6.535475
4448.000000	6.541579
4446.000000	6.548373
4444.000000	6.556665
4442.000000	6.564815
4440.000000	6.572376
4438.000000	6.579288
4436.000000	6.586407
4434.000000	6.594498
4432.000000	6.602263
4430.000000	6.608844
4428.000000	6.615479
4426.000000	6.623107
4424.000000	6.630205
4422.000000	6.636408
4420.000000	6.643653
4418.000000	6.652889
4416.000000	6.661939
4414.000000	6.670806
4412.000000	6.679500
4410.000000	6.686336
4408.000000	6.692024
4406.000000	6.699723
4404.000000	6.708583
4402.000000	6.716437
4400.000000	6.723777
4398.000000	6.730498
4396.000000	6.736056
4394.000000	6.741859
4392.000000	6.749797
4390.000000	6.759447
4388.000000	6.767705
4386.000000	6.774056
4384.000000	6.780362
4382.000000	6.786915
4380.000000	6.793832
4378.000000	6.801354
4376.000000	6.807824
4374.000000	6.814285
4372.000000	6.821493
4370.000000	6.827247
4368.000000	6.831873
4366.000000	6.838462
4364.000000	6.845879
4362.000000	6.851673
4360.000000	6.857073
4358.000000	6.863247
4356.000000	6.870646
4354.000000	6.878942
4352.000000	6.886111
4350.000000	6.893232
4348.000000	6.902236
4346.000000	6.910625
4344.000000	6.916959
4342.000000	6.923233
4340.000000	6.930085
4338.000000	6.936886
4336.000000	6.943475
4334.000000	6.950517
4332.000000	6.958007
4330.000000	6.965668
4328.000000	6.971857
4326.000000	6.977443
4324.000000	6.984786
4322.000000	6.992326
4320.000000	6.998939
4318.000000	7.007319
4316.000000	7.016247
4314.000000	7.023734
4312.000000	7.029480
4310.000000	7.034567
4308.000000	7.041235
4306.000000	7.050443
4304.000000	7.060088
4302.000000	7.068069
4300.000000	7.075268
4298.000000	7.082695
4296.000000	7.089483
4294.000000	7.096765
4292.000000	7.104616
4290.000000	7.111058
4288.000000	7.117671
4286.000000	7.125377
4284.000000	7.132072
4282.000000	7.138081
4280.000000	7.145545
4278.000000	7.153248
4276.000000	7.159389
4274.000000	7.164716
4272.000000	7.169596
4270.000000	7.174951
4268.000000	7.182394
4266.000000	7.188935
4264.000000	7.193764
4262.000000	7.201061
4260.000000	7.209886
4258.000000	7.216788
4256.000000	7.222881
4254.000000	7.229917
4252.000000	7.237387
4250.000000	7.245645
4248.000000	7.253883
4246.000000	7.260143
4244.000000	7.265159
4242.000000	7.272337
4240.000000	7.279960
4238.000000	7.286649
4236.000000	7.294717
4234.000000	7.303114
4232.000000	7.309751
4230.000000	7.317010
4228.000000	7.325077
4226.000000	7.332437
4224.000000	7.337756
4222.000000	7.342765
4220.000000	7.350667
4218.000000	7.359881
4216.000000	7.368274
4214.000000	7.376392
