PE IR       SUBTECH     SPECTRUM    ASCII       PEDS        4.00        
   -1
TE109A_023_80K_after_90K_BG.ASC
20/04/21
12:58:40.00
20/04/21
12:58:40.00
Administrator
TE109A, Tuesday, April 21 2020, 002.
1000.000000
#HDR
-1
-1
#GR
cm-1
EGY
1.0
0.0
6000.000000
-2.000000
2501
8
104.020804
10.947810
#DATA
6000.000000	15.445466
5998.000000	15.476638
5996.000000	15.507079
5994.000000	15.537437
5992.000000	15.567448
5990.000000	15.596381
5988.000000	15.627067
5986.000000	15.659163
5984.000000	15.690938
5982.000000	15.722626
5980.000000	15.751872
5978.000000	15.783245
5976.000000	15.813784
5974.000000	15.845752
5972.000000	15.877545
5970.000000	15.908773
5968.000000	15.939743
5966.000000	15.970692
5964.000000	16.001111
5962.000000	16.031940
5960.000000	16.063491
5958.000000	16.096356
5956.000000	16.128697
5954.000000	16.159057
5952.000000	16.188908
5950.000000	16.221296
5948.000000	16.253838
5946.000000	16.286955
5944.000000	16.317734
5942.000000	16.348967
5940.000000	16.379904
5938.000000	16.410642
5936.000000	16.441678
5934.000000	16.473093
5932.000000	16.504424
5930.000000	16.536227
5928.000000	16.567724
5926.000000	16.600060
5924.000000	16.631316
5922.000000	16.662509
5920.000000	16.695301
5918.000000	16.729700
5916.000000	16.763820
5914.000000	16.798247
5912.000000	16.831959
5910.000000	16.865727
5908.000000	16.898770
5906.000000	16.932611
5904.000000	16.967076
5902.000000	17.001183
5900.000000	17.033659
5898.000000	17.065956
5896.000000	17.097971
5894.000000	17.131670
5892.000000	17.165229
5890.000000	17.197914
5888.000000	17.231297
5886.000000	17.266095
5884.000000	17.300572
5882.000000	17.333670
5880.000000	17.364812
5878.000000	17.397197
5876.000000	17.429575
5874.000000	17.463195
5872.000000	17.498132
5870.000000	17.533899
5868.000000	17.568558
5866.000000	17.602364
5864.000000	17.635979
5862.000000	17.671226
5860.000000	17.707015
5858.000000	17.741425
5856.000000	17.773713
5854.000000	17.807356
5852.000000	17.842376
5850.000000	17.879154
5848.000000	17.914113
5846.000000	17.950719
5844.000000	17.988903
5842.000000	18.028087
5840.000000	18.066352
5838.000000	18.104968
5836.000000	18.144007
5834.000000	18.181748
5832.000000	18.219439
5830.000000	18.257308
5828.000000	18.296014
5826.000000	18.335878
5824.000000	18.376269
5822.000000	18.417749
5820.000000	18.455584
5818.000000	18.490392
5816.000000	18.524794
5814.000000	18.561995
5812.000000	18.601792
5810.000000	18.641480
5808.000000	18.677780
5806.000000	18.713900
5804.000000	18.749660
5802.000000	18.786963
5800.000000	18.823893
5798.000000	18.861764
5796.000000	18.901564
5794.000000	18.941614
5792.000000	18.980100
5790.000000	19.018049
5788.000000	19.056352
5786.000000	19.095423
5784.000000	19.133351
5782.000000	19.170411
5780.000000	19.208323
5778.000000	19.246767
5776.000000	19.285033
5774.000000	19.322283
5772.000000	19.360224
5770.000000	19.399993
5768.000000	19.439929
5766.000000	19.479424
5764.000000	19.517360
5762.000000	19.555303
5760.000000	19.594217
5758.000000	19.633663
5756.000000	19.672803
5754.000000	19.711906
5752.000000	19.750267
5750.000000	19.787877
5748.000000	19.824293
5746.000000	19.861883
5744.000000	19.900211
5742.000000	19.938571
5740.000000	19.975141
5738.000000	20.012277
5736.000000	20.050565
5734.000000	20.089573
5732.000000	20.127921
5730.000000	20.165769
5728.000000	20.203338
5726.000000	20.241956
5724.000000	20.279439
5722.000000	20.317873
5720.000000	20.355518
5718.000000	20.394893
5716.000000	20.434360
5714.000000	20.475214
5712.000000	20.516101
5710.000000	20.556749
5708.000000	20.596544
5706.000000	20.635658
5704.000000	20.675013
5702.000000	20.717094
5700.000000	20.760893
5698.000000	20.805896
5696.000000	20.848989
5694.000000	20.890191
5692.000000	20.929965
5690.000000	20.970899
5688.000000	21.012062
5686.000000	21.053927
5684.000000	21.095896
5682.000000	21.138807
5680.000000	21.182051
5678.000000	21.224149
5676.000000	21.265541
5674.000000	21.307284
5672.000000	21.350159
5670.000000	21.393058
5668.000000	21.435311
5666.000000	21.477081
5664.000000	21.518383
5662.000000	21.560650
5660.000000	21.602300
5658.000000	21.646118
5656.000000	21.690055
5654.000000	21.732695
5652.000000	21.773838
5650.000000	21.814925
5648.000000	21.855140
5646.000000	21.896720
5644.000000	21.939040
5642.000000	21.983286
5640.000000	22.026021
5638.000000	22.068240
5636.000000	22.110417
5634.000000	22.153403
5632.000000	22.193933
5630.000000	22.234729
5628.000000	22.276550
5626.000000	22.319720
5624.000000	22.362212
5622.000000	22.403474
5620.000000	22.445111
5618.000000	22.488388
5616.000000	22.530573
5614.000000	22.572356
5612.000000	22.614847
5610.000000	22.658617
5608.000000	22.701044
5606.000000	22.741807
5604.000000	22.784359
5602.000000	22.828486
5600.000000	22.871803
5598.000000	22.914972
5596.000000	22.958843
5594.000000	23.003770
5592.000000	23.046734
5590.000000	23.089265
5588.000000	23.131171
5586.000000	23.173676
5584.000000	23.216642
5582.000000	23.259758
5580.000000	23.303682
5578.000000	23.348844
5576.000000	23.393834
5574.000000	23.437295
5572.000000	23.479717
5570.000000	23.524312
5568.000000	23.570058
5566.000000	23.616098
5564.000000	23.660939
5562.000000	23.705970
5560.000000	23.750191
5558.000000	23.794578
5556.000000	23.837925
5554.000000	23.881029
5552.000000	23.924576
5550.000000	23.969503
5548.000000	24.014770
5546.000000	24.060235
5544.000000	24.105311
5542.000000	24.149944
5540.000000	24.191631
5538.000000	24.233258
5536.000000	24.275945
5534.000000	24.321654
5532.000000	24.368258
5530.000000	24.414874
5528.000000	24.460025
5526.000000	24.503317
5524.000000	24.544563
5522.000000	24.588108
5520.000000	24.632466
5518.000000	24.678043
5516.000000	24.723211
5514.000000	24.767274
5512.000000	24.809548
5510.000000	24.850829
5508.000000	24.892259
5506.000000	24.936882
5504.000000	24.982618
5502.000000	25.029512
5500.000000	25.076536
5498.000000	25.121136
5496.000000	25.160435
5494.000000	25.199145
5492.000000	25.242095
5490.000000	25.292042
5488.000000	25.342574
5486.000000	25.392441
5484.000000	25.441335
5482.000000	25.488901
5480.000000	25.529742
5478.000000	25.564906
5476.000000	25.603599
5474.000000	25.653563
5472.000000	25.707535
5470.000000	25.756602
5468.000000	25.801481
5466.000000	25.846135
5464.000000	25.888517
5462.000000	25.931423
5460.000000	25.978455
5458.000000	26.029884
5456.000000	26.080991
5454.000000	26.127670
5452.000000	26.168459
5450.000000	26.205075
5448.000000	26.241657
5446.000000	26.283876
5444.000000	26.328900
5442.000000	26.379702
5440.000000	26.431100
5438.000000	26.478281
5436.000000	26.523040
5434.000000	26.567319
5432.000000	26.608939
5430.000000	26.651676
5428.000000	26.702409
5426.000000	26.763341
5424.000000	26.822154
5422.000000	26.873940
5420.000000	26.919459
5418.000000	26.953290
5416.000000	26.977453
5414.000000	27.006445
5412.000000	27.051883
5410.000000	27.112871
5408.000000	27.174461
5406.000000	27.231816
5404.000000	27.282949
5402.000000	27.329799
5400.000000	27.370966
5398.000000	27.406453
5396.000000	27.440804
5394.000000	27.486103
5392.000000	27.542849
5390.000000	27.599445
5388.000000	27.643738
5386.000000	27.686272
5384.000000	27.737408
5382.000000	27.790282
5380.000000	27.829470
5378.000000	27.865347
5376.000000	27.912729
5374.000000	27.974520
5372.000000	28.036835
5370.000000	28.092401
5368.000000	28.139490
5366.000000	28.182845
5364.000000	28.229085
5362.000000	28.280440
5360.000000	28.330146
5358.000000	28.370512
5356.000000	28.403288
5354.000000	28.440758
5352.000000	28.489282
5350.000000	28.541688
5348.000000	28.579730
5346.000000	28.614772
5344.000000	28.660897
5342.000000	28.711447
5340.000000	28.755696
5338.000000	28.803491
5336.000000	28.864993
5334.000000	28.929015
5332.000000	28.979544
5330.000000	29.021725
5328.000000	29.067601
5326.000000	29.120846
5324.000000	29.178341
5322.000000	29.232952
5320.000000	29.282578
5318.000000	29.329494
5316.000000	29.375082
5314.000000	29.423095
5312.000000	29.469127
5310.000000	29.510207
5308.000000	29.552593
5306.000000	29.602193
5304.000000	29.657087
5302.000000	29.707970
5300.000000	29.755850
5298.000000	29.805771
5296.000000	29.854465
5294.000000	29.896611
5292.000000	29.936294
5290.000000	29.983853
5288.000000	30.036856
5286.000000	30.090996
5284.000000	30.142054
5282.000000	30.194089
5280.000000	30.245591
5278.000000	30.297908
5276.000000	30.349882
5274.000000	30.399692
5272.000000	30.445229
5270.000000	30.488960
5268.000000	30.528111
5266.000000	30.564770
5264.000000	30.607877
5262.000000	30.664817
5260.000000	30.726353
5258.000000	30.777129
5256.000000	30.821000
5254.000000	30.868779
5252.000000	30.917539
5250.000000	30.961491
5248.000000	31.003660
5246.000000	31.054396
5244.000000	31.114189
5242.000000	31.175938
5240.000000	31.233693
5238.000000	31.285074
5236.000000	31.332106
5234.000000	31.377490
5232.000000	31.422736
5230.000000	31.466754
5228.000000	31.507434
5226.000000	31.552434
5224.000000	31.606495
5222.000000	31.665386
5220.000000	31.719918
5218.000000	31.771810
5216.000000	31.824358
5214.000000	31.875091
5212.000000	31.916380
5210.000000	31.948555
5208.000000	31.983668
5206.000000	32.036832
5204.000000	32.103226
5202.000000	32.167156
5200.000000	32.218836
5198.000000	32.267182
5196.000000	32.318649
5194.000000	32.373592
5192.000000	32.426570
5190.000000	32.475974
5188.000000	32.522468
5186.000000	32.571673
5184.000000	32.626774
5182.000000	32.685290
5180.000000	32.740855
5178.000000	32.795037
5176.000000	32.847282
5174.000000	32.896888
5172.000000	32.944618
5170.000000	32.996004
5168.000000	33.049055
5166.000000	33.100540
5164.000000	33.151408
5162.000000	33.204932
5160.000000	33.257393
5158.000000	33.307215
5156.000000	33.357526
5154.000000	33.410323
5152.000000	33.463109
5150.000000	33.516070
5148.000000	33.569634
5146.000000	33.621524
5144.000000	33.671150
5142.000000	33.722681
5140.000000	33.775528
5138.000000	33.828003
5136.000000	33.878578
5134.000000	33.930602
5132.000000	33.982871
5130.000000	34.035439
5128.000000	34.088333
5126.000000	34.141800
5124.000000	34.193997
5122.000000	34.243496
5120.000000	34.290421
5118.000000	34.340154
5116.000000	34.393866
5114.000000	34.448697
5112.000000	34.500531
5110.000000	34.552269
5108.000000	34.604279
5106.000000	34.656749
5104.000000	34.709248
5102.000000	34.763073
5100.000000	34.816183
5098.000000	34.870258
5096.000000	34.924539
5094.000000	34.978999
5092.000000	35.031926
5090.000000	35.084202
5088.000000	35.136577
5086.000000	35.190997
5084.000000	35.246214
5082.000000	35.301507
5080.000000	35.355543
5078.000000	35.409658
5076.000000	35.463352
5074.000000	35.518267
5072.000000	35.573719
5070.000000	35.629319
5068.000000	35.682583
5066.000000	35.734837
5064.000000	35.787441
5062.000000	35.842576
5060.000000	35.898498
5058.000000	35.953840
5056.000000	36.006372
5054.000000	36.058756
5052.000000	36.111617
5050.000000	36.166298
5048.000000	36.220717
5046.000000	36.276113
5044.000000	36.330674
5042.000000	36.384218
5040.000000	36.435193
5038.000000	36.487347
5036.000000	36.540661
5034.000000	36.595115
5032.000000	36.647656
5030.000000	36.701875
5028.000000	36.756344
5026.000000	36.810913
5024.000000	36.864010
5022.000000	36.919133
5020.000000	36.974720
5018.000000	37.028335
5016.000000	37.079113
5014.000000	37.131375
5012.000000	37.186173
5010.000000	37.241776
5008.000000	37.295933
5006.000000	37.350976
5004.000000	37.405845
5002.000000	37.461663
5000.000000	37.517991
4998.000000	37.575051
4996.000000	37.629779
4994.000000	37.685047
4992.000000	37.741438
4990.000000	37.797158
4988.000000	37.851339
4986.000000	37.907464
4984.000000	37.965210
4982.000000	38.023021
4980.000000	38.078779
4978.000000	38.133792
4976.000000	38.188575
4974.000000	38.245333
4972.000000	38.301974
4970.000000	38.358346
4968.000000	38.414137
4966.000000	38.470556
4964.000000	38.526324
4962.000000	38.581117
4960.000000	38.634343
4958.000000	38.688627
4956.000000	38.744373
4954.000000	38.800859
4952.000000	38.855598
4950.000000	38.909667
4948.000000	38.964175
4946.000000	39.020218
4944.000000	39.075750
4942.000000	39.131118
4940.000000	39.185832
4938.000000	39.241037
4936.000000	39.295696
4934.000000	39.350355
4932.000000	39.403539
4930.000000	39.457495
4928.000000	39.511980
4926.000000	39.567517
4924.000000	39.622399
4922.000000	39.677695
4920.000000	39.732815
4918.000000	39.788361
4916.000000	39.844165
4914.000000	39.899850
4912.000000	39.955113
4910.000000	40.011887
4908.000000	40.070346
4906.000000	40.129158
4904.000000	40.185976
4902.000000	40.240954
4900.000000	40.294574
4898.000000	40.349873
4896.000000	40.406088
4894.000000	40.463159
4892.000000	40.520737
4890.000000	40.580561
4888.000000	40.640379
4886.000000	40.699104
4884.000000	40.755334
4882.000000	40.811992
4880.000000	40.868677
4878.000000	40.925144
4876.000000	40.982198
4874.000000	41.040838
4872.000000	41.097772
4870.000000	41.153140
4868.000000	41.208355
4866.000000	41.265023
4864.000000	41.322240
4862.000000	41.379420
4860.000000	41.434785
4858.000000	41.492080
4856.000000	41.550556
4854.000000	41.606931
4852.000000	41.660372
4850.000000	41.715766
4848.000000	41.772744
4846.000000	41.829392
4844.000000	41.885959
4842.000000	41.943378
4840.000000	41.998473
4838.000000	42.052202
4836.000000	42.107224
4834.000000	42.165315
4832.000000	42.222638
4830.000000	42.280001
4828.000000	42.335961
4826.000000	42.390836
4824.000000	42.445309
4822.000000	42.502249
4820.000000	42.559356
4818.000000	42.615835
4816.000000	42.671507
4814.000000	42.730005
4812.000000	42.789549
4810.000000	42.848803
4808.000000	42.904965
4806.000000	42.961346
4804.000000	43.019124
4802.000000	43.078445
4800.000000	43.135696
4798.000000	43.192680
4796.000000	43.251084
4794.000000	43.311699
4792.000000	43.371848
4790.000000	43.431243
4788.000000	43.489650
4786.000000	43.548922
4784.000000	43.608497
4782.000000	43.667772
4780.000000	43.725629
4778.000000	43.782686
4776.000000	43.840101
4774.000000	43.897932
4772.000000	43.955148
4770.000000	44.013921
4768.000000	44.073307
4766.000000	44.131767
4764.000000	44.188520
4762.000000	44.246401
4760.000000	44.303732
4758.000000	44.360781
4756.000000	44.417761
4754.000000	44.475000
4752.000000	44.530023
4750.000000	44.585191
4748.000000	44.640898
4746.000000	44.697957
4744.000000	44.755070
4742.000000	44.812084
4740.000000	44.868346
4738.000000	44.924931
4736.000000	44.979790
4734.000000	45.034941
4732.000000	45.092944
4730.000000	45.153017
4728.000000	45.211155
4726.000000	45.269057
4724.000000	45.325806
4722.000000	45.381984
4720.000000	45.439176
4718.000000	45.498755
4716.000000	45.557891
4714.000000	45.618671
4712.000000	45.680853
4710.000000	45.742870
4708.000000	45.803127
4706.000000	45.865236
4704.000000	45.927752
4702.000000	45.991075
4700.000000	46.052732
4698.000000	46.114345
4696.000000	46.175287
4694.000000	46.236718
4692.000000	46.296626
4690.000000	46.355453
4688.000000	46.412288
4686.000000	46.471352
4684.000000	46.532510
4682.000000	46.593628
4680.000000	46.652228
4678.000000	46.711991
4676.000000	46.771678
4674.000000	46.832648
4672.000000	46.893438
4670.000000	46.953802
4668.000000	47.012156
4666.000000	47.072429
4664.000000	47.132444
4662.000000	47.191924
4660.000000	47.251640
4658.000000	47.313125
4656.000000	47.372457
4654.000000	47.431756
4652.000000	47.491839
4650.000000	47.551427
4648.000000	47.608981
4646.000000	47.669469
4644.000000	47.731569
4642.000000	47.792205
4640.000000	47.849600
4638.000000	47.908471
4636.000000	47.969337
4634.000000	48.030344
4632.000000	48.088668
4630.000000	48.147269
4628.000000	48.206937
4626.000000	48.268059
4624.000000	48.329395
4622.000000	48.391539
4620.000000	48.452940
4618.000000	48.513867
4616.000000	48.574075
4614.000000	48.635786
4612.000000	48.699270
4610.000000	48.761986
4608.000000	48.822143
4606.000000	48.884928
4604.000000	48.951447
4602.000000	49.016894
4600.000000	49.078588
4598.000000	49.140378
4596.000000	49.203795
4594.000000	49.268868
4592.000000	49.332892
4590.000000	49.395883
4588.000000	49.457256
4586.000000	49.518673
4584.000000	49.580835
4582.000000	49.645349
4580.000000	49.709890
4578.000000	49.773818
4576.000000	49.835619
4574.000000	49.897483
4572.000000	49.960453
4570.000000	50.024851
4568.000000	50.087782
4566.000000	50.149109
4564.000000	50.210590
4562.000000	50.274129
4560.000000	50.336719
4558.000000	50.397682
4556.000000	50.458831
4554.000000	50.521390
4552.000000	50.581771
4550.000000	50.641044
4548.000000	50.701263
4546.000000	50.763944
4544.000000	50.826370
4542.000000	50.888316
4540.000000	50.948608
4538.000000	51.010492
4536.000000	51.072089
4534.000000	51.132924
4532.000000	51.194096
4530.000000	51.256632
4528.000000	51.317133
4526.000000	51.378976
4524.000000	51.441438
4522.000000	51.504492
4520.000000	51.568296
4518.000000	51.632731
4516.000000	51.695242
4514.000000	51.758593
4512.000000	51.821933
4510.000000	51.886673
4508.000000	51.952729
4506.000000	52.017910
4504.000000	52.080305
4502.000000	52.144725
4500.000000	52.210781
4498.000000	52.277191
4496.000000	52.342790
4494.000000	52.407730
4492.000000	52.469580
4490.000000	52.530906
4488.000000	52.593181
4486.000000	52.658268
4484.000000	52.723996
4482.000000	52.789050
4480.000000	52.851503
4478.000000	52.914014
4476.000000	52.975894
4474.000000	53.037942
4472.000000	53.100855
4470.000000	53.164962
4468.000000	53.226460
4466.000000	53.287178
4464.000000	53.348718
4462.000000	53.410482
4460.000000	53.470964
4458.000000	53.531569
4456.000000	53.591957
4454.000000	53.654276
4452.000000	53.717035
4450.000000	53.778996
4448.000000	53.839593
4446.000000	53.900103
4444.000000	53.960569
4442.000000	54.023125
4440.000000	54.085165
4438.000000	54.147286
4436.000000	54.208745
4434.000000	54.269682
4432.000000	54.330223
4430.000000	54.392877
4428.000000	54.456141
4426.000000	54.519039
4424.000000	54.579825
4422.000000	54.641644
4420.000000	54.705074
4418.000000	54.769873
4416.000000	54.833940
4414.000000	54.898037
4412.000000	54.961760
4410.000000	55.025387
4408.000000	55.087412
4406.000000	55.151498
4404.000000	55.216533
4402.000000	55.280292
4400.000000	55.341990
4398.000000	55.405378
4396.000000	55.469897
4394.000000	55.534271
4392.000000	55.596058
4390.000000	55.657256
4388.000000	55.718666
4386.000000	55.780428
4384.000000	55.840439
4382.000000	55.900585
4380.000000	55.961210
4378.000000	56.022978
4376.000000	56.084197
4374.000000	56.144042
4372.000000	56.201358
4370.000000	56.260065
4368.000000	56.319666
4366.000000	56.379417
4364.000000	56.437955
4362.000000	56.497581
4360.000000	56.558937
4358.000000	56.622153
4356.000000	56.683781
4354.000000	56.744559
4352.000000	56.805435
4350.000000	56.867510
4348.000000	56.928459
4346.000000	56.989687
4344.000000	57.051235
4342.000000	57.114400
4340.000000	57.177985
4338.000000	57.240707
4336.000000	57.302201
4334.000000	57.366102
4332.000000	57.430885
4330.000000	57.495039
4328.000000	57.557493
4326.000000	57.621727
4324.000000	57.688813
4322.000000	57.757570
4320.000000	57.824546
4318.000000	57.889801
4316.000000	57.954272
4314.000000	58.021018
4312.000000	58.087207
4310.000000	58.152762
4308.000000	58.218361
4306.000000	58.284761
4304.000000	58.350702
4302.000000	58.417829
4300.000000	58.483519
4298.000000	58.547890
4296.000000	58.611647
4294.000000	58.676745
4292.000000	58.740925
