PE IR       SUBTECH     SPECTRUM    ASCII       PEDS        4.00        
   -1
TE109A_078_80K_after_150K_BG.ASC
20/04/21
21:08:29.00
20/04/21
21:08:29.00
Administrator
TE109A, Tuesday, April 21 2020, 078.
1000.000000
#HDR
-1
-1
#GR
cm-1
EGY
1.0
0.0
6000.000000
-2.000000
2501
8
105.546073
10.967363
#DATA
6000.000000	16.555001
5998.000000	16.586075
5996.000000	16.619453
5994.000000	16.653203
5992.000000	16.687267
5990.000000	16.721405
5988.000000	16.755313
5986.000000	16.788166
5984.000000	16.819355
5982.000000	16.851222
5980.000000	16.884937
5978.000000	16.919690
5976.000000	16.953976
5974.000000	16.987599
5972.000000	17.021332
5970.000000	17.055928
5968.000000	17.090378
5966.000000	17.125136
5964.000000	17.158746
5962.000000	17.191679
5960.000000	17.225418
5958.000000	17.258437
5956.000000	17.292708
5954.000000	17.328111
5952.000000	17.363996
5950.000000	17.399550
5948.000000	17.433559
5946.000000	17.467763
5944.000000	17.501651
5942.000000	17.535446
5940.000000	17.567497
5938.000000	17.599455
5936.000000	17.632345
5934.000000	17.666522
5932.000000	17.702258
5930.000000	17.737876
5928.000000	17.772519
5926.000000	17.806975
5924.000000	17.840926
5922.000000	17.875646
5920.000000	17.911251
5918.000000	17.947952
5916.000000	17.984730
5914.000000	18.020433
5912.000000	18.056583
5910.000000	18.094008
5908.000000	18.132033
5906.000000	18.169826
5904.000000	18.206246
5902.000000	18.241925
5900.000000	18.277678
5898.000000	18.314244
5896.000000	18.351946
5894.000000	18.389745
5892.000000	18.426087
5890.000000	18.461914
5888.000000	18.497493
5886.000000	18.533492
5884.000000	18.569522
5882.000000	18.605796
5880.000000	18.642244
5878.000000	18.677203
5876.000000	18.712536
5874.000000	18.748636
5872.000000	18.786093
5870.000000	18.823951
5868.000000	18.860532
5866.000000	18.898468
5864.000000	18.936270
5862.000000	18.973535
5860.000000	19.009981
5858.000000	19.046177
5856.000000	19.084614
5854.000000	19.125251
5852.000000	19.165723
5850.000000	19.204975
5848.000000	19.242447
5846.000000	19.281279
5844.000000	19.321289
5842.000000	19.361327
5840.000000	19.401445
5838.000000	19.442783
5836.000000	19.485108
5834.000000	19.527490
5832.000000	19.568870
5830.000000	19.609443
5828.000000	19.651986
5826.000000	19.694211
5824.000000	19.735453
5822.000000	19.774854
5820.000000	19.815641
5818.000000	19.858050
5816.000000	19.899634
5814.000000	19.941005
5812.000000	19.982010
5810.000000	20.022070
5808.000000	20.060143
5806.000000	20.099297
5804.000000	20.142256
5802.000000	20.186768
5800.000000	20.228884
5798.000000	20.268818
5796.000000	20.307911
5794.000000	20.349619
5792.000000	20.391178
5790.000000	20.431854
5788.000000	20.472387
5786.000000	20.513205
5784.000000	20.555474
5782.000000	20.598084
5780.000000	20.639853
5778.000000	20.682385
5776.000000	20.723765
5774.000000	20.764720
5772.000000	20.806734
5770.000000	20.849604
5768.000000	20.893206
5766.000000	20.935535
5764.000000	20.975742
5762.000000	21.016689
5760.000000	21.058703
5758.000000	21.102155
5756.000000	21.145466
5754.000000	21.189032
5752.000000	21.230583
5750.000000	21.270846
5748.000000	21.310594
5746.000000	21.352459
5744.000000	21.396103
5742.000000	21.438890
5740.000000	21.479473
5738.000000	21.519333
5736.000000	21.559098
5734.000000	21.598950
5732.000000	21.638755
5730.000000	21.679722
5728.000000	21.722164
5726.000000	21.763771
5724.000000	21.803779
5722.000000	21.844225
5720.000000	21.886557
5718.000000	21.931660
5716.000000	21.975515
5714.000000	22.019866
5712.000000	22.062927
5710.000000	22.106254
5708.000000	22.149998
5706.000000	22.193968
5704.000000	22.237224
5702.000000	22.280200
5700.000000	22.324131
5698.000000	22.369741
5696.000000	22.416038
5694.000000	22.462617
5692.000000	22.509189
5690.000000	22.555028
5688.000000	22.600480
5686.000000	22.646889
5684.000000	22.692134
5682.000000	22.736478
5680.000000	22.780199
5678.000000	22.825827
5676.000000	22.872538
5674.000000	22.919324
5672.000000	22.965426
5670.000000	23.010895
5668.000000	23.055134
5666.000000	23.100200
5664.000000	23.145553
5662.000000	23.191974
5660.000000	23.237115
5658.000000	23.282683
5656.000000	23.329518
5654.000000	23.376481
5652.000000	23.422632
5650.000000	23.467292
5648.000000	23.512336
5646.000000	23.557084
5644.000000	23.600556
5642.000000	23.644904
5640.000000	23.691013
5638.000000	23.738649
5636.000000	23.785891
5634.000000	23.831583
5632.000000	23.875969
5630.000000	23.920931
5628.000000	23.966832
5626.000000	24.014492
5624.000000	24.061327
5622.000000	24.106624
5620.000000	24.150830
5618.000000	24.196137
5616.000000	24.241645
5614.000000	24.288574
5612.000000	24.336064
5610.000000	24.383014
5608.000000	24.428280
5606.000000	24.472751
5604.000000	24.516626
5602.000000	24.561382
5600.000000	24.606538
5598.000000	24.653500
5596.000000	24.700443
5594.000000	24.746609
5592.000000	24.794146
5590.000000	24.842148
5588.000000	24.889330
5586.000000	24.935365
5584.000000	24.981468
5582.000000	25.029197
5580.000000	25.076610
5578.000000	25.124044
5576.000000	25.171223
5574.000000	25.219452
5572.000000	25.267461
5570.000000	25.315696
5568.000000	25.363811
5566.000000	25.412392
5564.000000	25.461275
5562.000000	25.510718
5560.000000	25.559536
5558.000000	25.606966
5556.000000	25.652570
5554.000000	25.698018
5552.000000	25.744608
5550.000000	25.792351
5548.000000	25.841289
5546.000000	25.889441
5544.000000	25.935938
5542.000000	25.982958
5540.000000	26.030771
5538.000000	26.079806
5536.000000	26.128256
5534.000000	26.175995
5532.000000	26.223203
5530.000000	26.269783
5528.000000	26.317997
5526.000000	26.367319
5524.000000	26.415130
5522.000000	26.460947
5520.000000	26.506672
5518.000000	26.553819
5516.000000	26.603164
5514.000000	26.653855
5512.000000	26.702987
5510.000000	26.748469
5508.000000	26.792097
5506.000000	26.839738
5504.000000	26.890225
5502.000000	26.940996
5500.000000	26.990101
5498.000000	27.037567
5496.000000	27.081917
5494.000000	27.126768
5492.000000	27.173874
5490.000000	27.224759
5488.000000	27.277105
5486.000000	27.330442
5484.000000	27.383715
5482.000000	27.433387
5480.000000	27.478888
5478.000000	27.519164
5476.000000	27.561776
5474.000000	27.611988
5472.000000	27.667326
5470.000000	27.720386
5468.000000	27.768793
5466.000000	27.816290
5464.000000	27.861948
5462.000000	27.909603
5460.000000	27.961291
5458.000000	28.016444
5456.000000	28.070573
5454.000000	28.120964
5452.000000	28.168318
5450.000000	28.211311
5448.000000	28.252083
5446.000000	28.296471
5444.000000	28.344771
5442.000000	28.398788
5440.000000	28.452021
5438.000000	28.501234
5436.000000	28.549420
5434.000000	28.598908
5432.000000	28.646145
5430.000000	28.692725
5428.000000	28.743764
5426.000000	28.802545
5424.000000	28.859089
5422.000000	28.910429
5420.000000	28.959489
5418.000000	29.002899
5416.000000	29.039631
5414.000000	29.077421
5412.000000	29.124575
5410.000000	29.182291
5408.000000	29.242771
5406.000000	29.300846
5404.000000	29.353593
5402.000000	29.402292
5400.000000	29.447928
5398.000000	29.491657
5396.000000	29.535613
5394.000000	29.586425
5392.000000	29.643456
5390.000000	29.699020
5388.000000	29.747441
5386.000000	29.794936
5384.000000	29.846581
5382.000000	29.900339
5380.000000	29.947731
5378.000000	29.991911
5376.000000	30.041151
5374.000000	30.099574
5372.000000	30.160375
5370.000000	30.216972
5368.000000	30.267096
5366.000000	30.314587
5364.000000	30.364013
5362.000000	30.416990
5360.000000	30.471030
5358.000000	30.519023
5356.000000	30.559672
5354.000000	30.602785
5352.000000	30.653289
5350.000000	30.707621
5348.000000	30.752461
5346.000000	30.794584
5344.000000	30.843856
5342.000000	30.896150
5340.000000	30.945746
5338.000000	30.998061
5336.000000	31.056484
5334.000000	31.115803
5332.000000	31.167811
5330.000000	31.215553
5328.000000	31.264245
5326.000000	31.317863
5324.000000	31.376881
5322.000000	31.433501
5320.000000	31.484320
5318.000000	31.531897
5316.000000	31.580681
5314.000000	31.632762
5312.000000	31.684055
5310.000000	31.732109
5308.000000	31.779329
5306.000000	31.830360
5304.000000	31.884173
5302.000000	31.937891
5300.000000	31.989938
5298.000000	32.041465
5296.000000	32.093103
5294.000000	32.141736
5292.000000	32.187346
5290.000000	32.235709
5288.000000	32.290491
5286.000000	32.348218
5284.000000	32.403304
5282.000000	32.456990
5280.000000	32.510725
5278.000000	32.564212
5276.000000	32.617161
5274.000000	32.669821
5272.000000	32.722246
5270.000000	32.773300
5268.000000	32.818850
5266.000000	32.860976
5264.000000	32.908038
5262.000000	32.965311
5260.000000	33.026125
5258.000000	33.079022
5256.000000	33.127075
5254.000000	33.178685
5252.000000	33.230663
5250.000000	33.277626
5248.000000	33.322485
5246.000000	33.376542
5244.000000	33.437665
5242.000000	33.498547
5240.000000	33.555552
5238.000000	33.607875
5236.000000	33.656268
5234.000000	33.704099
5232.000000	33.756084
5230.000000	33.808526
5228.000000	33.856223
5226.000000	33.903842
5224.000000	33.958125
5222.000000	34.016497
5220.000000	34.071994
5218.000000	34.124922
5216.000000	34.179082
5214.000000	34.233070
5212.000000	34.281234
5210.000000	34.322787
5208.000000	34.366402
5206.000000	34.422267
5204.000000	34.485792
5202.000000	34.546796
5200.000000	34.599935
5198.000000	34.653314
5196.000000	34.709935
5194.000000	34.767372
5192.000000	34.820977
5190.000000	34.872446
5188.000000	34.922910
5186.000000	34.975388
5184.000000	35.031118
5182.000000	35.090034
5180.000000	35.147555
5178.000000	35.202542
5176.000000	35.255609
5174.000000	35.308088
5172.000000	35.361429
5170.000000	35.416721
5168.000000	35.471673
5166.000000	35.525317
5164.000000	35.579032
5162.000000	35.633192
5160.000000	35.688055
5158.000000	35.742279
5156.000000	35.797268
5154.000000	35.853357
5152.000000	35.910185
5150.000000	35.966190
5148.000000	36.020011
5146.000000	36.074167
5144.000000	36.127736
5142.000000	36.181431
5140.000000	36.234952
5138.000000	36.288865
5136.000000	36.342746
5134.000000	36.398049
5132.000000	36.453691
5130.000000	36.507699
5128.000000	36.561506
5126.000000	36.616804
5124.000000	36.671898
5122.000000	36.724100
5120.000000	36.776912
5118.000000	36.831390
5116.000000	36.885163
5114.000000	36.939100
5112.000000	36.993981
5110.000000	37.049294
5108.000000	37.103460
5106.000000	37.158530
5104.000000	37.214301
5102.000000	37.270455
5100.000000	37.327182
5098.000000	37.383874
5096.000000	37.439969
5094.000000	37.496345
5092.000000	37.552422
5090.000000	37.608754
5088.000000	37.665346
5086.000000	37.722001
5084.000000	37.778498
5082.000000	37.835402
5080.000000	37.892633
5078.000000	37.949172
5076.000000	38.005960
5074.000000	38.063171
5072.000000	38.119928
5070.000000	38.176586
5068.000000	38.232617
5066.000000	38.289901
5064.000000	38.347486
5062.000000	38.404174
5060.000000	38.459072
5058.000000	38.514426
5056.000000	38.571477
5054.000000	38.629433
5052.000000	38.686135
5050.000000	38.741117
5048.000000	38.795145
5046.000000	38.851236
5044.000000	38.908701
5042.000000	38.965948
5040.000000	39.022116
5038.000000	39.078332
5036.000000	39.134414
5034.000000	39.190432
5032.000000	39.247137
5030.000000	39.304715
5028.000000	39.360475
5026.000000	39.415420
5024.000000	39.470048
5022.000000	39.526535
5020.000000	39.582311
5018.000000	39.638338
5016.000000	39.694641
5014.000000	39.752533
5012.000000	39.809056
5010.000000	39.864121
5008.000000	39.920162
5006.000000	39.979032
5004.000000	40.038853
5002.000000	40.098597
5000.000000	40.156249
4998.000000	40.213138
4996.000000	40.269448
4994.000000	40.326579
4992.000000	40.384485
4990.000000	40.443667
4988.000000	40.502730
4986.000000	40.560386
4984.000000	40.616958
4982.000000	40.674436
4980.000000	40.733097
4978.000000	40.793292
4976.000000	40.851936
4974.000000	40.909160
4972.000000	40.966523
4970.000000	41.026808
4968.000000	41.086009
4966.000000	41.142170
4964.000000	41.196884
4962.000000	41.253843
4960.000000	41.312784
4958.000000	41.372141
4956.000000	41.429432
4954.000000	41.486579
4952.000000	41.543390
4950.000000	41.599770
4948.000000	41.655106
4946.000000	41.711568
4944.000000	41.768312
4942.000000	41.825879
4940.000000	41.884119
4938.000000	41.941890
4936.000000	41.998710
4934.000000	42.055291
4932.000000	42.111878
4930.000000	42.169155
4928.000000	42.225192
4926.000000	42.280384
4924.000000	42.337164
4922.000000	42.396420
4920.000000	42.454577
4918.000000	42.511728
4916.000000	42.568897
4914.000000	42.627101
4912.000000	42.685915
4910.000000	42.745069
4908.000000	42.803288
4906.000000	42.861480
4904.000000	42.919635
4902.000000	42.978034
4900.000000	43.036657
4898.000000	43.096214
4896.000000	43.155766
4894.000000	43.214850
4892.000000	43.272899
4890.000000	43.330533
4888.000000	43.388928
4886.000000	43.449111
4884.000000	43.509580
4882.000000	43.569389
4880.000000	43.629730
4878.000000	43.691382
4876.000000	43.751708
4874.000000	43.809353
4872.000000	43.866335
4870.000000	43.925264
4868.000000	43.984939
4866.000000	44.043553
4864.000000	44.100628
4862.000000	44.158452
4860.000000	44.217104
4858.000000	44.275847
4856.000000	44.333059
4854.000000	44.390370
4852.000000	44.449553
4850.000000	44.509344
4848.000000	44.567043
4846.000000	44.623992
4844.000000	44.681922
4842.000000	44.740239
4840.000000	44.797654
4838.000000	44.853831
4836.000000	44.909290
4834.000000	44.967985
4832.000000	45.028680
4830.000000	45.087620
4828.000000	45.143742
4826.000000	45.200206
4824.000000	45.256981
4822.000000	45.315143
4820.000000	45.374717
4818.000000	45.435419
4816.000000	45.494982
4814.000000	45.553051
4812.000000	45.609571
4810.000000	45.667758
4808.000000	45.728299
4806.000000	45.790066
4804.000000	45.851186
4802.000000	45.912495
4800.000000	45.972544
4798.000000	46.032388
4796.000000	46.093728
4794.000000	46.155084
4792.000000	46.214207
4790.000000	46.273034
4788.000000	46.333011
4786.000000	46.394236
4784.000000	46.454780
4782.000000	46.515015
4780.000000	46.575216
4778.000000	46.636136
4776.000000	46.695804
4774.000000	46.756050
4772.000000	46.816695
4770.000000	46.876812
4768.000000	46.936224
4766.000000	46.995463
4764.000000	47.053839
4762.000000	47.112240
4760.000000	47.171745
4758.000000	47.231394
4756.000000	47.288987
4754.000000	47.346538
4752.000000	47.405749
4750.000000	47.465964
4748.000000	47.524109
4746.000000	47.581685
4744.000000	47.639107
4742.000000	47.697479
4740.000000	47.755861
4738.000000	47.814728
4736.000000	47.873642
4734.000000	47.933434
4732.000000	47.993110
4730.000000	48.052147
4728.000000	48.109384
4726.000000	48.166805
4724.000000	48.225885
4722.000000	48.286502
4720.000000	48.346725
4718.000000	48.407899
4716.000000	48.469177
4714.000000	48.530622
4712.000000	48.591452
4710.000000	48.652697
4708.000000	48.714869
4706.000000	48.778814
4704.000000	48.842868
4702.000000	48.905748
4700.000000	48.967492
4698.000000	49.030326
4696.000000	49.093628
4694.000000	49.155382
4692.000000	49.215272
4690.000000	49.276006
4688.000000	49.336928
4686.000000	49.398181
4684.000000	49.459784
4682.000000	49.522104
4680.000000	49.583713
4678.000000	49.646739
4676.000000	49.709892
4674.000000	49.771653
4672.000000	49.830808
4670.000000	49.891362
4668.000000	49.953844
4666.000000	50.016529
4664.000000	50.076924
4662.000000	50.137291
4660.000000	50.197363
4658.000000	50.257226
4656.000000	50.317891
4654.000000	50.380718
4652.000000	50.442865
4650.000000	50.503610
4648.000000	50.564170
4646.000000	50.625957
4644.000000	50.687723
4642.000000	50.749315
4640.000000	50.810600
4638.000000	50.871154
4636.000000	50.930723
4634.000000	50.990376
4632.000000	51.050217
4630.000000	51.111015
4628.000000	51.173152
4626.000000	51.234966
4624.000000	51.295659
4622.000000	51.357802
4620.000000	51.421640
4618.000000	51.485611
4616.000000	51.549546
4614.000000	51.614173
4612.000000	51.677955
4610.000000	51.740746
4608.000000	51.803228
4606.000000	51.867518
4604.000000	51.932909
4602.000000	51.999275
4600.000000	52.064811
4598.000000	52.129492
4596.000000	52.193661
4594.000000	52.259688
4592.000000	52.325493
4590.000000	52.389999
4588.000000	52.453109
4586.000000	52.517009
4584.000000	52.581395
4582.000000	52.645970
4580.000000	52.709711
4578.000000	52.774089
4576.000000	52.837814
4574.000000	52.901532
4572.000000	52.964973
4570.000000	53.028969
4568.000000	53.093325
4566.000000	53.158238
4564.000000	53.221162
4562.000000	53.283310
4560.000000	53.346184
4558.000000	53.410073
4556.000000	53.472373
4554.000000	53.533626
4552.000000	53.595244
4550.000000	53.658877
4548.000000	53.722851
4546.000000	53.786132
4544.000000	53.847212
4542.000000	53.908483
4540.000000	53.972096
4538.000000	54.037038
4536.000000	54.099028
4534.000000	54.159907
4532.000000	54.224091
4530.000000	54.290721
4528.000000	54.355708
4526.000000	54.418781
4524.000000	54.480484
4522.000000	54.542374
4520.000000	54.606241
4518.000000	54.671902
4516.000000	54.737571
4514.000000	54.803774
4512.000000	54.870689
4510.000000	54.936455
4508.000000	55.000108
4506.000000	55.063820
4504.000000	55.127648
4502.000000	55.191860
4500.000000	55.256877
4498.000000	55.322867
4496.000000	55.389523
4494.000000	55.456326
4492.000000	55.521547
4490.000000	55.587163
4488.000000	55.653052
4486.000000	55.718182
4484.000000	55.782475
4482.000000	55.846548
4480.000000	55.910193
4478.000000	55.974701
4476.000000	56.038809
4474.000000	56.102448
4472.000000	56.165758
4470.000000	56.229260
4468.000000	56.291929
4466.000000	56.354231
4464.000000	56.416404
4462.000000	56.480047
4460.000000	56.543386
4458.000000	56.605262
4456.000000	56.665112
4454.000000	56.725747
4452.000000	56.788673
4450.000000	56.852976
4448.000000	56.916709
4446.000000	56.980387
4444.000000	57.042615
4442.000000	57.104656
4440.000000	57.167287
4438.000000	57.229859
4436.000000	57.292359
4434.000000	57.355870
4432.000000	57.418262
4430.000000	57.480405
4428.000000	57.542864
4426.000000	57.606846
4424.000000	57.671763
4422.000000	57.736005
4420.000000	57.798017
4418.000000	57.860083
4416.000000	57.923491
4414.000000	57.988140
4412.000000	58.053094
4410.000000	58.118812
4408.000000	58.185126
4406.000000	58.251353
4404.000000	58.316324
4402.000000	58.380956
4400.000000	58.445098
4398.000000	58.508017
4396.000000	58.570901
4394.000000	58.636190
4392.000000	58.700640
4390.000000	58.762180
4388.000000	58.823617
4386.000000	58.886119
4384.000000	58.947307
4382.000000	59.008624
4380.000000	59.070421
4378.000000	59.131378
4376.000000	59.190282
4374.000000	59.248134
4372.000000	59.306750
4370.000000	59.367042
4368.000000	59.427002
4366.000000	59.488481
4364.000000	59.551222
4362.000000	59.612087
4360.000000	59.671669
4358.000000	59.734627
4356.000000	59.799330
4354.000000	59.862235
4352.000000	59.922368
4350.000000	59.983560
4348.000000	60.047175
4346.000000	60.111435
4344.000000	60.175153
4342.000000	60.240345
4340.000000	60.305574
4338.000000	60.369759
4336.000000	60.432293
4334.000000	60.494534
4332.000000	60.558091
4330.000000	60.623937
4328.000000	60.690319
4326.000000	60.755521
4324.000000	60.819278
4322.000000	60.884725
4320.000000	60.951842
4318.000000	61.020465
4316.000000	61.090835
4314.000000	61.160477
4312.000000	61.226752
4310.000000	61.292545
4308.000000	61.358766
4306.000000	61.425619
4304.000000	61.492471
4302.000000	61.559438
4300.000000	61.626520
4298.000000	61.693783
4296.000000	61.759341
4294.000000	61.822884
4292.000000	61.883996
