PE IR       SUBTECH     SPECTRUM    ASCII       PEDS        4.00        
   -1
TE109A_031_80K_after_100K_BG.ASC
20/04/21
13:55:06.00
20/04/21
13:55:06.00
Administrator
TE109A, Tuesday, April 21 2020, 031.
1000.000000
#HDR
-1
-1
#GR
cm-1
EGY
1.0
0.0
6000.000000
-2.000000
2501
8
105.553306
10.983635
#DATA
6000.000000	16.751468
5998.000000	16.783547
5996.000000	16.816977
5994.000000	16.851503
5992.000000	16.885275
5990.000000	16.918443
5988.000000	16.951077
5986.000000	16.984305
5984.000000	17.016892
5982.000000	17.049564
5980.000000	17.081300
5978.000000	17.113910
5976.000000	17.147645
5974.000000	17.182644
5972.000000	17.217407
5970.000000	17.252268
5968.000000	17.286484
5966.000000	17.320557
5964.000000	17.355516
5962.000000	17.390935
5960.000000	17.424521
5958.000000	17.457205
5956.000000	17.491085
5954.000000	17.526364
5952.000000	17.561637
5950.000000	17.596793
5948.000000	17.630664
5946.000000	17.665183
5944.000000	17.698469
5942.000000	17.731426
5940.000000	17.764201
5938.000000	17.796885
5936.000000	17.829922
5934.000000	17.864284
5932.000000	17.898881
5930.000000	17.933152
5928.000000	17.967856
5926.000000	18.003094
5924.000000	18.038823
5922.000000	18.075077
5920.000000	18.111061
5918.000000	18.147246
5916.000000	18.181996
5914.000000	18.217147
5912.000000	18.253684
5910.000000	18.292052
5908.000000	18.330219
5906.000000	18.367033
5904.000000	18.403508
5902.000000	18.440423
5900.000000	18.476074
5898.000000	18.511968
5896.000000	18.547781
5894.000000	18.585331
5892.000000	18.623731
5890.000000	18.660873
5888.000000	18.696764
5886.000000	18.731426
5884.000000	18.765985
5882.000000	18.802437
5880.000000	18.838412
5878.000000	18.874188
5876.000000	18.909151
5874.000000	18.944719
5872.000000	18.981716
5870.000000	19.019332
5868.000000	19.057172
5866.000000	19.095018
5864.000000	19.131236
5862.000000	19.168595
5860.000000	19.206852
5858.000000	19.246390
5856.000000	19.283796
5854.000000	19.321363
5852.000000	19.360078
5850.000000	19.400625
5848.000000	19.440026
5846.000000	19.479436
5844.000000	19.519391
5842.000000	19.560453
5840.000000	19.601902
5838.000000	19.643542
5836.000000	19.684162
5834.000000	19.724949
5832.000000	19.766747
5830.000000	19.809909
5828.000000	19.852178
5826.000000	19.893686
5824.000000	19.935275
5822.000000	19.977295
5820.000000	20.017880
5818.000000	20.057767
5816.000000	20.097650
5814.000000	20.138426
5812.000000	20.180543
5810.000000	20.221903
5808.000000	20.261774
5806.000000	20.300921
5804.000000	20.341295
5802.000000	20.384484
5800.000000	20.426234
5798.000000	20.468043
5796.000000	20.507973
5794.000000	20.547803
5792.000000	20.587229
5790.000000	20.627238
5788.000000	20.669290
5786.000000	20.711394
5784.000000	20.753220
5782.000000	20.794549
5780.000000	20.835333
5778.000000	20.876801
5776.000000	20.918673
5774.000000	20.961964
5772.000000	21.004559
5770.000000	21.048029
5768.000000	21.090578
5766.000000	21.133489
5764.000000	21.175395
5762.000000	21.216629
5760.000000	21.258131
5758.000000	21.300283
5756.000000	21.342596
5754.000000	21.385915
5752.000000	21.428091
5750.000000	21.469692
5748.000000	21.509628
5746.000000	21.550147
5744.000000	21.590546
5742.000000	21.631203
5740.000000	21.673059
5738.000000	21.715809
5736.000000	21.756850
5734.000000	21.797106
5732.000000	21.836789
5730.000000	21.878758
5728.000000	21.920453
5726.000000	21.961040
5724.000000	22.002518
5722.000000	22.044079
5720.000000	22.085836
5718.000000	22.127847
5716.000000	22.169911
5714.000000	22.214082
5712.000000	22.259337
5710.000000	22.304436
5708.000000	22.348089
5706.000000	22.391936
5704.000000	22.436291
5702.000000	22.481454
5700.000000	22.525441
5698.000000	22.570623
5696.000000	22.615285
5694.000000	22.659930
5692.000000	22.704454
5690.000000	22.748287
5688.000000	22.791255
5686.000000	22.836159
5684.000000	22.884666
5682.000000	22.934265
5680.000000	22.980635
5678.000000	23.024493
5676.000000	23.068302
5674.000000	23.113468
5672.000000	23.159674
5670.000000	23.207497
5668.000000	23.254191
5666.000000	23.298679
5664.000000	23.341579
5662.000000	23.386612
5660.000000	23.432717
5658.000000	23.479878
5656.000000	23.525746
5654.000000	23.570568
5652.000000	23.615713
5650.000000	23.661375
5648.000000	23.706973
5646.000000	23.753328
5644.000000	23.799586
5642.000000	23.846404
5640.000000	23.892494
5638.000000	23.938315
5636.000000	23.983197
5634.000000	24.028243
5632.000000	24.073210
5630.000000	24.120092
5628.000000	24.166560
5626.000000	24.213282
5624.000000	24.259247
5622.000000	24.304365
5620.000000	24.347696
5618.000000	24.391930
5616.000000	24.438508
5614.000000	24.485833
5612.000000	24.531042
5610.000000	24.576011
5608.000000	24.622649
5606.000000	24.670072
5604.000000	24.716407
5602.000000	24.761937
5600.000000	24.807124
5598.000000	24.853035
5596.000000	24.899395
5594.000000	24.946761
5592.000000	24.994216
5590.000000	25.040546
5588.000000	25.086106
5586.000000	25.132592
5584.000000	25.179513
5582.000000	25.227674
5580.000000	25.275739
5578.000000	25.322993
5576.000000	25.370796
5574.000000	25.418428
5572.000000	25.466256
5570.000000	25.514175
5568.000000	25.562269
5566.000000	25.611860
5564.000000	25.660654
5562.000000	25.707016
5560.000000	25.753059
5558.000000	25.801505
5556.000000	25.848921
5554.000000	25.895695
5552.000000	25.942138
5550.000000	25.990926
5548.000000	26.039560
5546.000000	26.087783
5544.000000	26.136496
5542.000000	26.184949
5540.000000	26.232154
5538.000000	26.280278
5536.000000	26.327703
5534.000000	26.375035
5532.000000	26.422089
5530.000000	26.470415
5528.000000	26.517919
5526.000000	26.564029
5524.000000	26.610465
5522.000000	26.657538
5520.000000	26.702969
5518.000000	26.749491
5516.000000	26.797337
5514.000000	26.847541
5512.000000	26.896120
5510.000000	26.943371
5508.000000	26.990442
5506.000000	27.037739
5504.000000	27.086892
5502.000000	27.136661
5500.000000	27.186358
5498.000000	27.232666
5496.000000	27.275978
5494.000000	27.319934
5492.000000	27.365960
5490.000000	27.415838
5488.000000	27.467988
5486.000000	27.522887
5484.000000	27.577720
5482.000000	27.630839
5480.000000	27.676779
5478.000000	27.716553
5476.000000	27.757919
5474.000000	27.809262
5472.000000	27.865940
5470.000000	27.918177
5468.000000	27.966056
5466.000000	28.013105
5464.000000	28.058628
5462.000000	28.104722
5460.000000	28.153965
5458.000000	28.207923
5456.000000	28.263348
5454.000000	28.315599
5452.000000	28.362162
5450.000000	28.402150
5448.000000	28.441400
5446.000000	28.486034
5444.000000	28.534179
5442.000000	28.588121
5440.000000	28.642509
5438.000000	28.691586
5436.000000	28.738047
5434.000000	28.784950
5432.000000	28.830834
5430.000000	28.877434
5428.000000	28.931901
5426.000000	28.996605
5424.000000	29.058245
5422.000000	29.111258
5420.000000	29.158886
5418.000000	29.197823
5416.000000	29.229113
5414.000000	29.263700
5412.000000	29.311585
5410.000000	29.373367
5408.000000	29.437096
5406.000000	29.496635
5404.000000	29.551038
5402.000000	29.602169
5400.000000	29.648976
5398.000000	29.688653
5396.000000	29.725777
5394.000000	29.773884
5392.000000	29.832371
5390.000000	29.891115
5388.000000	29.939453
5386.000000	29.986672
5384.000000	30.041303
5382.000000	30.098029
5380.000000	30.142605
5378.000000	30.180900
5376.000000	30.229042
5374.000000	30.292279
5372.000000	30.356706
5370.000000	30.413541
5368.000000	30.465726
5366.000000	30.516258
5364.000000	30.565271
5362.000000	30.615804
5360.000000	30.666887
5358.000000	30.712161
5356.000000	30.748453
5354.000000	30.788865
5352.000000	30.840306
5350.000000	30.894902
5348.000000	30.936633
5346.000000	30.975712
5344.000000	31.025331
5342.000000	31.079252
5340.000000	31.129059
5338.000000	31.182347
5336.000000	31.244927
5334.000000	31.307950
5332.000000	31.360081
5330.000000	31.406941
5328.000000	31.456727
5326.000000	31.513205
5324.000000	31.573761
5322.000000	31.631379
5320.000000	31.683693
5318.000000	31.733124
5316.000000	31.781692
5314.000000	31.832822
5312.000000	31.882303
5310.000000	31.927878
5308.000000	31.973215
5306.000000	32.024559
5304.000000	32.079322
5302.000000	32.133443
5300.000000	32.186818
5298.000000	32.241635
5296.000000	32.294262
5294.000000	32.340858
5292.000000	32.385432
5290.000000	32.435117
5288.000000	32.489754
5286.000000	32.546854
5284.000000	32.600882
5282.000000	32.654016
5280.000000	32.707415
5278.000000	32.763088
5276.000000	32.819259
5274.000000	32.872223
5272.000000	32.921405
5270.000000	32.969033
5268.000000	33.010590
5266.000000	33.048992
5264.000000	33.093617
5262.000000	33.153412
5260.000000	33.217560
5258.000000	33.270982
5256.000000	33.319398
5254.000000	33.372395
5252.000000	33.424207
5250.000000	33.468099
5248.000000	33.511289
5246.000000	33.564613
5244.000000	33.627215
5242.000000	33.691357
5240.000000	33.752738
5238.000000	33.809544
5236.000000	33.859826
5234.000000	33.906537
5232.000000	33.954419
5230.000000	34.003196
5228.000000	34.047760
5226.000000	34.094557
5224.000000	34.151176
5222.000000	34.212821
5220.000000	34.269761
5218.000000	34.324038
5216.000000	34.379984
5214.000000	34.434847
5212.000000	34.480545
5210.000000	34.516054
5208.000000	34.554143
5206.000000	34.609754
5204.000000	34.679551
5202.000000	34.747597
5200.000000	34.802042
5198.000000	34.851090
5196.000000	34.903900
5194.000000	34.961860
5192.000000	35.017361
5190.000000	35.069787
5188.000000	35.121210
5186.000000	35.173766
5184.000000	35.228103
5182.000000	35.285783
5180.000000	35.344037
5178.000000	35.400531
5176.000000	35.454910
5174.000000	35.510076
5172.000000	35.565668
5170.000000	35.621682
5168.000000	35.675348
5166.000000	35.727683
5164.000000	35.779801
5162.000000	35.834916
5160.000000	35.891213
5158.000000	35.946461
5156.000000	36.000115
5154.000000	36.054934
5152.000000	36.110678
5150.000000	36.167636
5148.000000	36.223790
5146.000000	36.278447
5144.000000	36.330885
5142.000000	36.383836
5140.000000	36.438205
5138.000000	36.493456
5136.000000	36.547277
5134.000000	36.600517
5132.000000	36.654639
5130.000000	36.710567
5128.000000	36.766032
5126.000000	36.820403
5124.000000	36.873745
5122.000000	36.927400
5120.000000	36.981043
5118.000000	37.035838
5116.000000	37.090551
5114.000000	37.145547
5112.000000	37.200012
5110.000000	37.254956
5108.000000	37.309715
5106.000000	37.364668
5104.000000	37.420451
5102.000000	37.477759
5100.000000	37.533951
5098.000000	37.588947
5096.000000	37.644260
5094.000000	37.702591
5092.000000	37.759995
5090.000000	37.816255
5088.000000	37.872343
5086.000000	37.929656
5084.000000	37.986917
5082.000000	38.043839
5080.000000	38.100763
5078.000000	38.158689
5076.000000	38.215902
5074.000000	38.273190
5072.000000	38.328225
5070.000000	38.384253
5068.000000	38.440203
5066.000000	38.496198
5064.000000	38.551394
5062.000000	38.608433
5060.000000	38.665753
5058.000000	38.722525
5056.000000	38.779569
5054.000000	38.837538
5052.000000	38.893489
5050.000000	38.949347
5048.000000	39.006313
5046.000000	39.062705
5044.000000	39.117474
5042.000000	39.172553
5040.000000	39.228442
5038.000000	39.285407
5036.000000	39.342082
5034.000000	39.398295
5032.000000	39.453369
5030.000000	39.509888
5028.000000	39.567336
5026.000000	39.624731
5024.000000	39.681437
5022.000000	39.737747
5020.000000	39.793436
5018.000000	39.848801
5016.000000	39.904213
5014.000000	39.961998
5012.000000	40.020055
5010.000000	40.076535
5008.000000	40.130886
5006.000000	40.187351
5004.000000	40.245364
5002.000000	40.305001
5000.000000	40.364887
4998.000000	40.424087
4996.000000	40.480958
4994.000000	40.537649
4992.000000	40.594771
4990.000000	40.653915
4988.000000	40.713799
4986.000000	40.773275
4984.000000	40.830903
4982.000000	40.888110
4980.000000	40.945159
4978.000000	41.003220
4976.000000	41.062049
4974.000000	41.121519
4972.000000	41.180471
4970.000000	41.239610
4968.000000	41.298480
4966.000000	41.356629
4964.000000	41.412926
4962.000000	41.469613
4960.000000	41.526279
4958.000000	41.582634
4956.000000	41.638603
4954.000000	41.697973
4952.000000	41.756712
4950.000000	41.814101
4948.000000	41.870307
4946.000000	41.927411
4944.000000	41.982623
4942.000000	42.038657
4940.000000	42.097145
4938.000000	42.156785
4936.000000	42.214212
4934.000000	42.271485
4932.000000	42.329610
4930.000000	42.387096
4928.000000	42.441685
4926.000000	42.496730
4924.000000	42.553820
4922.000000	42.611417
4920.000000	42.668252
4918.000000	42.727088
4916.000000	42.785511
4914.000000	42.843231
4912.000000	42.900236
4910.000000	42.958583
4908.000000	43.016611
4906.000000	43.076674
4904.000000	43.137288
4902.000000	43.197341
4900.000000	43.255292
4898.000000	43.313446
4896.000000	43.372737
4894.000000	43.433411
4892.000000	43.492957
4890.000000	43.551409
4888.000000	43.610467
4886.000000	43.670238
4884.000000	43.729237
4882.000000	43.788231
4880.000000	43.848694
4878.000000	43.909220
4876.000000	43.968333
4874.000000	44.027157
4872.000000	44.085088
4870.000000	44.142893
4868.000000	44.200973
4866.000000	44.260435
4864.000000	44.318976
4862.000000	44.377004
4860.000000	44.434875
4858.000000	44.494876
4856.000000	44.554865
4854.000000	44.613238
4852.000000	44.669976
4850.000000	44.728300
4848.000000	44.786075
4846.000000	44.842393
4844.000000	44.898260
4842.000000	44.956825
4840.000000	45.015288
4838.000000	45.072478
4836.000000	45.129961
4834.000000	45.189342
4832.000000	45.247666
4830.000000	45.304465
4828.000000	45.361828
4826.000000	45.421800
4824.000000	45.480666
4822.000000	45.537783
4820.000000	45.595568
4818.000000	45.656582
4816.000000	45.716201
4814.000000	45.774011
4812.000000	45.832803
4810.000000	45.893841
4808.000000	45.953240
4806.000000	46.011613
4804.000000	46.070993
4802.000000	46.132335
4800.000000	46.192926
4798.000000	46.253475
4796.000000	46.313833
4794.000000	46.375737
4792.000000	46.436998
4790.000000	46.497224
4788.000000	46.556352
4786.000000	46.617346
4784.000000	46.679712
4782.000000	46.741773
4780.000000	46.800989
4778.000000	46.859190
4776.000000	46.918133
4774.000000	46.979237
4772.000000	47.039921
4770.000000	47.100251
4768.000000	47.159600
4766.000000	47.219833
4764.000000	47.278599
4762.000000	47.337299
4760.000000	47.396097
4758.000000	47.456044
4756.000000	47.514855
4754.000000	47.573294
4752.000000	47.631062
4750.000000	47.690017
4748.000000	47.748284
4746.000000	47.805746
4744.000000	47.862924
4742.000000	47.922220
4740.000000	47.981899
4738.000000	48.041347
4736.000000	48.098818
4734.000000	48.155905
4732.000000	48.214240
4730.000000	48.273971
4728.000000	48.332827
4726.000000	48.391918
4724.000000	48.451892
4722.000000	48.512463
4720.000000	48.572186
4718.000000	48.633672
4716.000000	48.696331
4714.000000	48.758623
4712.000000	48.820487
4710.000000	48.883327
4708.000000	48.944319
4706.000000	49.005134
4704.000000	49.067900
4702.000000	49.131620
4700.000000	49.194944
4698.000000	49.258642
4696.000000	49.321176
4694.000000	49.383427
4692.000000	49.444795
4690.000000	49.505952
4688.000000	49.567344
4686.000000	49.628655
4684.000000	49.688329
4682.000000	49.750682
4680.000000	49.815221
4678.000000	49.878301
4676.000000	49.938128
4674.000000	49.998874
4672.000000	50.060934
4670.000000	50.124287
4668.000000	50.187193
4666.000000	50.248472
4664.000000	50.306649
4662.000000	50.365871
4660.000000	50.427701
4658.000000	50.490562
4656.000000	50.550929
4654.000000	50.611121
4652.000000	50.672868
4650.000000	50.735857
4648.000000	50.796854
4646.000000	50.858213
4644.000000	50.920158
4642.000000	50.981767
4640.000000	51.042128
4638.000000	51.103389
4636.000000	51.165191
4634.000000	51.226810
4632.000000	51.287951
4630.000000	51.349750
4628.000000	51.410705
4626.000000	51.470877
4624.000000	51.531305
4622.000000	51.593682
4620.000000	51.655564
4618.000000	51.717534
4616.000000	51.779890
4614.000000	51.844679
4612.000000	51.910035
4610.000000	51.975137
4608.000000	52.038370
4606.000000	52.102913
4604.000000	52.169184
4602.000000	52.235779
4600.000000	52.300157
4598.000000	52.364868
4596.000000	52.429107
4594.000000	52.494775
4592.000000	52.560958
4590.000000	52.626360
4588.000000	52.689321
4586.000000	52.753723
4584.000000	52.819146
4582.000000	52.884970
4580.000000	52.948936
4578.000000	53.012914
4576.000000	53.077578
4574.000000	53.143282
4572.000000	53.207547
4570.000000	53.271243
4568.000000	53.334040
4566.000000	53.396887
4564.000000	53.459859
4562.000000	53.523828
4560.000000	53.586132
4558.000000	53.649143
4556.000000	53.712852
4554.000000	53.775511
4552.000000	53.837715
4550.000000	53.901980
4548.000000	53.964270
4546.000000	54.025373
4544.000000	54.086784
4542.000000	54.149655
4540.000000	54.213341
4538.000000	54.277259
4536.000000	54.338954
4534.000000	54.401221
4532.000000	54.464917
4530.000000	54.528795
4528.000000	54.591511
4526.000000	54.656134
4524.000000	54.721327
4522.000000	54.785119
4520.000000	54.847151
4518.000000	54.910353
4516.000000	54.975213
4514.000000	55.042904
4512.000000	55.109826
4510.000000	55.174805
4508.000000	55.240404
4506.000000	55.307477
4504.000000	55.371561
4502.000000	55.434693
4500.000000	55.499443
4498.000000	55.565955
4496.000000	55.632153
4494.000000	55.698947
4492.000000	55.765349
4490.000000	55.831896
4488.000000	55.897953
4486.000000	55.963457
4484.000000	56.026211
4482.000000	56.089255
4480.000000	56.153504
4478.000000	56.218881
4476.000000	56.283204
4474.000000	56.347240
4472.000000	56.410505
4470.000000	56.475100
4468.000000	56.539312
4466.000000	56.602475
4464.000000	56.663547
4462.000000	56.724673
4460.000000	56.786152
4458.000000	56.848664
4456.000000	56.911099
4454.000000	56.975720
4452.000000	57.040098
4450.000000	57.102817
4448.000000	57.163456
4446.000000	57.223881
4444.000000	57.286006
4442.000000	57.350439
4440.000000	57.412966
4438.000000	57.474601
4436.000000	57.536195
4434.000000	57.598421
4432.000000	57.661795
4430.000000	57.726685
4428.000000	57.791302
4426.000000	57.856792
4424.000000	57.921302
4422.000000	57.984839
4420.000000	58.047760
4418.000000	58.111379
4416.000000	58.174675
4414.000000	58.239009
4412.000000	58.303410
4410.000000	58.368154
4408.000000	58.432360
4406.000000	58.496241
4404.000000	58.560146
4402.000000	58.626271
4400.000000	58.691665
4398.000000	58.755537
4396.000000	58.818998
4394.000000	58.884064
4392.000000	58.948085
4390.000000	59.011534
4388.000000	59.074135
4386.000000	59.136098
4384.000000	59.195742
4382.000000	59.255552
4380.000000	59.315392
4378.000000	59.375381
4376.000000	59.435678
4374.000000	59.498109
4372.000000	59.560054
4370.000000	59.621209
4368.000000	59.681364
4366.000000	59.741712
4364.000000	59.802400
4362.000000	59.864485
4360.000000	59.925804
4358.000000	59.987022
4356.000000	60.048760
4354.000000	60.111500
4352.000000	60.173796
4350.000000	60.237535
4348.000000	60.301290
4346.000000	60.364680
4344.000000	60.427696
4342.000000	60.491720
4340.000000	60.555032
4338.000000	60.619044
4336.000000	60.682941
4334.000000	60.745940
4332.000000	60.809008
4330.000000	60.874783
4328.000000	60.940098
4326.000000	61.005274
4324.000000	61.070536
4322.000000	61.137058
4320.000000	61.205704
4318.000000	61.274791
4316.000000	61.341026
4314.000000	61.408301
4312.000000	61.476140
4310.000000	61.543643
4308.000000	61.612256
4306.000000	61.682851
4304.000000	61.750772
4302.000000	61.815227
4300.000000	61.877969
4298.000000	61.942346
4296.000000	62.007257
4294.000000	62.072664
4292.000000	62.137387
