PE IR       SUBTECH     SPECTRUM    ASCII       PEDS        4.00        
   -1
TE109A_050_80K_after_115K_BG.ASC
20/04/21
16:25:52.00
20/04/21
16:25:52.00
Administrator
TE109A, Tuesday, April 21 2020, 050.
1000.000000
#HDR
-1
-1
#GR
cm-1
EGY
1.0
0.0
6000.000000
-2.000000
2501
8
105.217598
10.929498
#DATA
6000.000000	16.244568
5998.000000	16.278024
5996.000000	16.309793
5994.000000	16.339719
5992.000000	16.370578
5990.000000	16.403196
5988.000000	16.437125
5986.000000	16.470823
5984.000000	16.502562
5982.000000	16.534673
5980.000000	16.566893
5978.000000	16.600062
5976.000000	16.633064
5974.000000	16.666492
5972.000000	16.701117
5970.000000	16.736253
5968.000000	16.770453
5966.000000	16.803389
5964.000000	16.836868
5962.000000	16.871469
5960.000000	16.904891
5958.000000	16.937067
5956.000000	16.969673
5954.000000	17.003765
5952.000000	17.037591
5950.000000	17.071411
5948.000000	17.104858
5946.000000	17.140244
5944.000000	17.175728
5942.000000	17.210059
5940.000000	17.242008
5938.000000	17.273725
5936.000000	17.307078
5934.000000	17.341640
5932.000000	17.376045
5930.000000	17.408981
5928.000000	17.441628
5926.000000	17.475666
5924.000000	17.510911
5922.000000	17.546655
5920.000000	17.582166
5918.000000	17.616867
5916.000000	17.652499
5914.000000	17.689216
5912.000000	17.725595
5910.000000	17.762321
5908.000000	17.799214
5906.000000	17.836297
5904.000000	17.872386
5902.000000	17.907801
5900.000000	17.942913
5898.000000	17.979548
5896.000000	18.016723
5894.000000	18.052255
5892.000000	18.087087
5890.000000	18.123152
5888.000000	18.159163
5886.000000	18.195166
5884.000000	18.229453
5882.000000	18.264125
5880.000000	18.300360
5878.000000	18.336879
5876.000000	18.373400
5874.000000	18.409493
5872.000000	18.445341
5870.000000	18.482119
5868.000000	18.518533
5866.000000	18.554629
5864.000000	18.589818
5862.000000	18.626375
5860.000000	18.664984
5858.000000	18.704828
5856.000000	18.743712
5854.000000	18.781793
5852.000000	18.819122
5850.000000	18.856501
5848.000000	18.893881
5846.000000	18.932773
5844.000000	18.973958
5842.000000	19.015899
5840.000000	19.056831
5838.000000	19.098203
5836.000000	19.139787
5834.000000	19.181259
5832.000000	19.221932
5830.000000	19.261804
5828.000000	19.302840
5826.000000	19.343833
5824.000000	19.384948
5822.000000	19.426352
5820.000000	19.466826
5818.000000	19.506624
5816.000000	19.546178
5814.000000	19.585324
5812.000000	19.624333
5810.000000	19.664773
5808.000000	19.706045
5806.000000	19.747654
5804.000000	19.788031
5802.000000	19.828236
5800.000000	19.869844
5798.000000	19.911702
5796.000000	19.952031
5794.000000	19.991177
5792.000000	20.030756
5790.000000	20.071361
5788.000000	20.112829
5786.000000	20.154902
5784.000000	20.196646
5782.000000	20.237492
5780.000000	20.277189
5778.000000	20.317874
5776.000000	20.359964
5774.000000	20.402915
5772.000000	20.444617
5770.000000	20.485792
5768.000000	20.527495
5766.000000	20.569915
5764.000000	20.611944
5762.000000	20.654674
5760.000000	20.697242
5758.000000	20.739062
5756.000000	20.779527
5754.000000	20.819660
5752.000000	20.860318
5750.000000	20.900774
5748.000000	20.942185
5746.000000	20.983557
5744.000000	21.023832
5742.000000	21.064007
5740.000000	21.104521
5738.000000	21.145965
5736.000000	21.186093
5734.000000	21.226910
5732.000000	21.267091
5730.000000	21.306896
5728.000000	21.347057
5726.000000	21.387934
5724.000000	21.428190
5722.000000	21.468684
5720.000000	21.510475
5718.000000	21.554094
5716.000000	21.597901
5714.000000	21.640836
5712.000000	21.683545
5710.000000	21.726186
5708.000000	21.769929
5706.000000	21.815982
5704.000000	21.860759
5702.000000	21.904683
5700.000000	21.948054
5698.000000	21.991873
5696.000000	22.035695
5694.000000	22.079875
5692.000000	22.124628
5690.000000	22.170143
5688.000000	22.215471
5686.000000	22.261761
5684.000000	22.308004
5682.000000	22.352533
5680.000000	22.396487
5678.000000	22.441176
5676.000000	22.486252
5674.000000	22.530819
5672.000000	22.575768
5670.000000	22.621617
5668.000000	22.667474
5666.000000	22.712377
5664.000000	22.757475
5662.000000	22.804000
5660.000000	22.850465
5658.000000	22.896841
5656.000000	22.941105
5654.000000	22.984388
5652.000000	23.028201
5650.000000	23.073175
5648.000000	23.119096
5646.000000	23.164904
5644.000000	23.210401
5642.000000	23.255461
5640.000000	23.299788
5638.000000	23.344632
5636.000000	23.389401
5634.000000	23.434770
5632.000000	23.479824
5630.000000	23.526268
5628.000000	23.571851
5626.000000	23.616314
5624.000000	23.660116
5622.000000	23.704691
5620.000000	23.751146
5618.000000	23.797698
5616.000000	23.843777
5614.000000	23.889303
5612.000000	23.933920
5610.000000	23.980118
5608.000000	24.025684
5606.000000	24.070530
5604.000000	24.114754
5602.000000	24.159212
5600.000000	24.205709
5598.000000	24.252900
5596.000000	24.299965
5594.000000	24.346740
5592.000000	24.392192
5590.000000	24.437799
5588.000000	24.484095
5586.000000	24.530538
5584.000000	24.578079
5582.000000	24.626073
5580.000000	24.673011
5578.000000	24.719674
5576.000000	24.765706
5574.000000	24.813612
5572.000000	24.861321
5570.000000	24.908505
5568.000000	24.955442
5566.000000	25.003464
5564.000000	25.051960
5562.000000	25.099646
5560.000000	25.145957
5558.000000	25.192674
5556.000000	25.239869
5554.000000	25.286841
5552.000000	25.332730
5550.000000	25.380042
5548.000000	25.427548
5546.000000	25.476562
5544.000000	25.525299
5542.000000	25.572922
5540.000000	25.617855
5538.000000	25.662372
5536.000000	25.710041
5534.000000	25.760218
5532.000000	25.809059
5530.000000	25.856105
5528.000000	25.901581
5526.000000	25.946735
5524.000000	25.991669
5522.000000	26.038547
5520.000000	26.086629
5518.000000	26.135240
5516.000000	26.182030
5514.000000	26.229579
5512.000000	26.276759
5510.000000	26.323294
5508.000000	26.370301
5506.000000	26.418792
5504.000000	26.468932
5502.000000	26.518053
5500.000000	26.566255
5498.000000	26.611577
5496.000000	26.652691
5494.000000	26.695481
5492.000000	26.743165
5490.000000	26.796285
5488.000000	26.849328
5486.000000	26.902089
5484.000000	26.954010
5482.000000	27.003816
5480.000000	27.049166
5478.000000	27.090584
5476.000000	27.133612
5474.000000	27.183540
5472.000000	27.236674
5470.000000	27.287627
5468.000000	27.336275
5466.000000	27.384938
5464.000000	27.432332
5462.000000	27.479193
5460.000000	27.528387
5458.000000	27.580886
5456.000000	27.634663
5454.000000	27.685113
5452.000000	27.730885
5450.000000	27.772153
5448.000000	27.814244
5446.000000	27.860391
5444.000000	27.909270
5442.000000	27.962251
5440.000000	28.015376
5438.000000	28.062415
5436.000000	28.106613
5434.000000	28.153354
5432.000000	28.201184
5430.000000	28.248776
5428.000000	28.300058
5426.000000	28.358918
5424.000000	28.417768
5422.000000	28.472290
5420.000000	28.521683
5418.000000	28.561744
5416.000000	28.593326
5414.000000	28.627524
5412.000000	28.674251
5410.000000	28.735300
5408.000000	28.799246
5406.000000	28.857768
5404.000000	28.909840
5402.000000	28.958584
5400.000000	29.004600
5398.000000	29.045715
5396.000000	29.085917
5394.000000	29.133682
5392.000000	29.189501
5390.000000	29.244680
5388.000000	29.294118
5386.000000	29.343520
5384.000000	29.397639
5382.000000	29.451139
5380.000000	29.495911
5378.000000	29.537774
5376.000000	29.586971
5374.000000	29.646935
5372.000000	29.709514
5370.000000	29.766393
5368.000000	29.816672
5366.000000	29.863578
5364.000000	29.910745
5362.000000	29.961245
5360.000000	30.014106
5358.000000	30.061214
5356.000000	30.100311
5354.000000	30.143192
5352.000000	30.195574
5350.000000	30.250610
5348.000000	30.293374
5346.000000	30.333944
5344.000000	30.383676
5342.000000	30.435271
5340.000000	30.481823
5338.000000	30.530377
5336.000000	30.589440
5334.000000	30.651629
5332.000000	30.705035
5330.000000	30.751651
5328.000000	30.799758
5326.000000	30.855019
5324.000000	30.914818
5322.000000	30.970458
5320.000000	31.019769
5318.000000	31.068773
5316.000000	31.119057
5314.000000	31.170961
5312.000000	31.220194
5310.000000	31.265725
5308.000000	31.311778
5306.000000	31.363016
5304.000000	31.417793
5302.000000	31.470203
5300.000000	31.521419
5298.000000	31.574518
5296.000000	31.627759
5294.000000	31.675772
5292.000000	31.720804
5290.000000	31.769774
5288.000000	31.823464
5286.000000	31.879848
5284.000000	31.933324
5282.000000	31.986605
5280.000000	32.040275
5278.000000	32.094578
5276.000000	32.147184
5274.000000	32.198294
5272.000000	32.248176
5270.000000	32.297672
5268.000000	32.341949
5266.000000	32.381503
5264.000000	32.426003
5262.000000	32.484213
5260.000000	32.547693
5258.000000	32.600761
5256.000000	32.646295
5254.000000	32.697295
5252.000000	32.749872
5250.000000	32.797649
5248.000000	32.842841
5246.000000	32.896129
5244.000000	32.956804
5242.000000	33.018094
5240.000000	33.076963
5238.000000	33.131773
5236.000000	33.181699
5234.000000	33.227987
5232.000000	33.276030
5230.000000	33.324071
5228.000000	33.368600
5226.000000	33.416155
5224.000000	33.471219
5222.000000	33.528258
5220.000000	33.581325
5218.000000	33.634924
5216.000000	33.691245
5214.000000	33.746426
5212.000000	33.793770
5210.000000	33.832906
5208.000000	33.874034
5206.000000	33.930350
5204.000000	33.997632
5202.000000	34.061638
5200.000000	34.114485
5198.000000	34.164147
5196.000000	34.217328
5194.000000	34.273679
5192.000000	34.327105
5190.000000	34.378396
5188.000000	34.428855
5186.000000	34.481246
5184.000000	34.537128
5182.000000	34.595332
5180.000000	34.652178
5178.000000	34.706739
5176.000000	34.761776
5174.000000	34.816957
5172.000000	34.870915
5170.000000	34.925193
5168.000000	34.978278
5166.000000	35.030268
5164.000000	35.082918
5162.000000	35.138412
5160.000000	35.193505
5158.000000	35.246642
5156.000000	35.300497
5154.000000	35.356480
5152.000000	35.412444
5150.000000	35.467862
5148.000000	35.521915
5146.000000	35.574223
5144.000000	35.625394
5142.000000	35.678668
5140.000000	35.734039
5138.000000	35.788816
5136.000000	35.842284
5134.000000	35.894656
5132.000000	35.948058
5130.000000	36.003447
5128.000000	36.058946
5126.000000	36.112562
5124.000000	36.164905
5122.000000	36.218577
5120.000000	36.272127
5118.000000	36.324491
5116.000000	36.377333
5114.000000	36.433000
5112.000000	36.489513
5110.000000	36.543355
5108.000000	36.595107
5106.000000	36.649630
5104.000000	36.707268
5102.000000	36.764420
5100.000000	36.819985
5098.000000	36.875574
5096.000000	36.931906
5094.000000	36.988682
5092.000000	37.044410
5090.000000	37.099773
5088.000000	37.155382
5086.000000	37.212700
5084.000000	37.269907
5082.000000	37.326362
5080.000000	37.382189
5078.000000	37.437672
5076.000000	37.493212
5074.000000	37.550341
5072.000000	37.608178
5070.000000	37.665057
5068.000000	37.720039
5066.000000	37.775122
5064.000000	37.829701
5062.000000	37.885675
5060.000000	37.943216
5058.000000	38.001019
5056.000000	38.056481
5054.000000	38.111338
5052.000000	38.166797
5050.000000	38.221952
5048.000000	38.277100
5046.000000	38.334115
5044.000000	38.391857
5042.000000	38.448167
5040.000000	38.501634
5038.000000	38.554724
5036.000000	38.608930
5034.000000	38.666258
5032.000000	38.723583
5030.000000	38.779017
5028.000000	38.833936
5026.000000	38.889840
5024.000000	38.944580
5022.000000	38.999211
5020.000000	39.056063
5018.000000	39.113070
5016.000000	39.167257
5014.000000	39.221479
5012.000000	39.278642
5010.000000	39.337983
5008.000000	39.395879
5006.000000	39.453170
5004.000000	39.510712
5002.000000	39.568667
5000.000000	39.625063
4998.000000	39.681797
4996.000000	39.738772
4994.000000	39.796314
4992.000000	39.854653
4990.000000	39.913859
4988.000000	39.971651
4986.000000	40.027588
4984.000000	40.083747
4982.000000	40.141521
4980.000000	40.200579
4978.000000	40.260682
4976.000000	40.320453
4974.000000	40.378673
4972.000000	40.435316
4970.000000	40.493054
4968.000000	40.550734
4966.000000	40.607745
4964.000000	40.664224
4962.000000	40.721768
4960.000000	40.778809
4958.000000	40.835009
4956.000000	40.890890
4954.000000	40.947479
4952.000000	41.004059
4950.000000	41.060418
4948.000000	41.115944
4946.000000	41.172479
4944.000000	41.230224
4942.000000	41.287469
4940.000000	41.341843
4938.000000	41.396214
4936.000000	41.452409
4934.000000	41.510210
4932.000000	41.567582
4930.000000	41.624502
4928.000000	41.680609
4926.000000	41.738312
4924.000000	41.794875
4922.000000	41.850317
4920.000000	41.906512
4918.000000	41.965926
4916.000000	42.023695
4914.000000	42.079020
4912.000000	42.135157
4910.000000	42.194920
4908.000000	42.254610
4906.000000	42.312170
4904.000000	42.368676
4902.000000	42.426367
4900.000000	42.484226
4898.000000	42.543215
4896.000000	42.604030
4894.000000	42.664934
4892.000000	42.724144
4890.000000	42.783022
4888.000000	42.841731
4886.000000	42.899895
4884.000000	42.957755
4882.000000	43.016726
4880.000000	43.076087
4878.000000	43.136326
4876.000000	43.195273
4874.000000	43.253746
4872.000000	43.311347
4870.000000	43.368715
4868.000000	43.425962
4866.000000	43.484084
4864.000000	43.542582
4862.000000	43.601817
4860.000000	43.660569
4858.000000	43.718274
4856.000000	43.775405
4854.000000	43.833569
4852.000000	43.892121
4850.000000	43.951031
4848.000000	44.008579
4846.000000	44.065362
4844.000000	44.121306
4842.000000	44.177886
4840.000000	44.234861
4838.000000	44.292820
4836.000000	44.350660
4834.000000	44.408271
4832.000000	44.464204
4830.000000	44.519659
4828.000000	44.575672
4826.000000	44.633531
4824.000000	44.692182
4822.000000	44.751812
4820.000000	44.810670
4818.000000	44.868928
4816.000000	44.926203
4814.000000	44.985206
4812.000000	45.045094
4810.000000	45.104244
4808.000000	45.162200
4806.000000	45.221689
4804.000000	45.282571
4802.000000	45.343744
4800.000000	45.403597
4798.000000	45.463292
4796.000000	45.523005
4794.000000	45.582386
4792.000000	45.641587
4790.000000	45.701491
4788.000000	45.762075
4786.000000	45.823031
4784.000000	45.882638
4782.000000	45.940683
4780.000000	45.998966
4778.000000	46.059158
4776.000000	46.119707
4774.000000	46.180015
4772.000000	46.238462
4770.000000	46.296717
4768.000000	46.356708
4766.000000	46.417304
4764.000000	46.475584
4762.000000	46.533307
4760.000000	46.592810
4758.000000	46.652977
4756.000000	46.710757
4754.000000	46.767554
4752.000000	46.825096
4750.000000	46.884322
4748.000000	46.943791
4746.000000	47.002362
4744.000000	47.059195
4742.000000	47.116284
4740.000000	47.174056
4738.000000	47.232828
4736.000000	47.290547
4734.000000	47.347906
4732.000000	47.405126
4730.000000	47.463956
4728.000000	47.523086
4726.000000	47.583795
4724.000000	47.644416
4722.000000	47.703647
4720.000000	47.761644
4718.000000	47.821263
4716.000000	47.881011
4714.000000	47.941733
4712.000000	48.004411
4710.000000	48.068589
4708.000000	48.130836
4706.000000	48.192396
4704.000000	48.253835
4702.000000	48.315923
4700.000000	48.378642
4698.000000	48.441776
4696.000000	48.503258
4694.000000	48.565026
4692.000000	48.627483
4690.000000	48.689407
4688.000000	48.749756
4686.000000	48.811787
4684.000000	48.873106
4682.000000	48.933705
4680.000000	48.994352
4678.000000	49.055708
4676.000000	49.116458
4674.000000	49.177661
4672.000000	49.237498
4670.000000	49.296798
4668.000000	49.357578
4666.000000	49.419365
4664.000000	49.480165
4662.000000	49.539794
4660.000000	49.599659
4658.000000	49.661661
4656.000000	49.724069
4654.000000	49.784911
4652.000000	49.844103
4650.000000	49.903570
4648.000000	49.964434
4646.000000	50.025886
4644.000000	50.085788
4642.000000	50.146674
4640.000000	50.209628
4638.000000	50.270922
4636.000000	50.329933
4634.000000	50.391911
4632.000000	50.454038
4630.000000	50.513358
4628.000000	50.573011
4626.000000	50.635676
4624.000000	50.696559
4622.000000	50.756096
4620.000000	50.817427
4618.000000	50.881929
4616.000000	50.946523
4614.000000	51.009254
4612.000000	51.071178
4610.000000	51.136260
4608.000000	51.202115
4606.000000	51.265945
4604.000000	51.329258
4602.000000	51.393874
4600.000000	51.458413
4598.000000	51.523601
4596.000000	51.588877
4594.000000	51.653226
4592.000000	51.717041
4590.000000	51.781230
4588.000000	51.844078
4586.000000	51.907077
4584.000000	51.970840
4582.000000	52.035704
4580.000000	52.100725
4578.000000	52.165412
4576.000000	52.227799
4574.000000	52.290200
4572.000000	52.353887
4570.000000	52.418104
4568.000000	52.481495
4566.000000	52.543840
4564.000000	52.606089
4562.000000	52.670770
4560.000000	52.735299
4558.000000	52.797628
4556.000000	52.858999
4554.000000	52.921180
4552.000000	52.984021
4550.000000	53.046655
4548.000000	53.107279
4546.000000	53.167905
4544.000000	53.230566
4542.000000	53.295067
4540.000000	53.358410
4538.000000	53.420187
4536.000000	53.481039
4534.000000	53.542521
4532.000000	53.604604
4530.000000	53.668923
4528.000000	53.733346
4526.000000	53.796004
4524.000000	53.858146
4522.000000	53.923508
4520.000000	53.990280
4518.000000	54.054779
4516.000000	54.116935
4514.000000	54.179883
4512.000000	54.244656
4510.000000	54.310448
4508.000000	54.375663
4506.000000	54.441031
4504.000000	54.506209
4502.000000	54.570365
4500.000000	54.634802
4498.000000	54.702474
4496.000000	54.769115
4494.000000	54.832880
4492.000000	54.896125
4490.000000	54.962118
4488.000000	55.028406
4486.000000	55.092782
4484.000000	55.155317
4482.000000	55.219201
4480.000000	55.283217
4478.000000	55.346010
4476.000000	55.408936
4474.000000	55.473816
4472.000000	55.538439
4470.000000	55.602458
4468.000000	55.667075
4466.000000	55.730497
4464.000000	55.789587
4462.000000	55.849156
4460.000000	55.911883
4458.000000	55.975324
4456.000000	56.037046
4454.000000	56.098906
4452.000000	56.159912
4450.000000	56.221609
4448.000000	56.284181
4446.000000	56.348020
4444.000000	56.410848
4442.000000	56.473342
4440.000000	56.534516
4438.000000	56.595417
4436.000000	56.656877
4434.000000	56.721110
4432.000000	56.785660
4430.000000	56.848390
4428.000000	56.909669
4426.000000	56.972793
4424.000000	57.037021
4422.000000	57.100569
4420.000000	57.163508
4418.000000	57.227852
4416.000000	57.293199
4414.000000	57.358314
4412.000000	57.421305
4410.000000	57.483745
4408.000000	57.547631
4406.000000	57.613301
4404.000000	57.678096
4402.000000	57.742097
4400.000000	57.805854
4398.000000	57.870033
4396.000000	57.933691
4394.000000	57.998221
4392.000000	58.062266
4390.000000	58.124434
4388.000000	58.185174
4386.000000	58.247366
4384.000000	58.309617
4382.000000	58.371062
4380.000000	58.430206
4378.000000	58.489680
4376.000000	58.551137
4374.000000	58.612475
4372.000000	58.671240
4370.000000	58.729504
4368.000000	58.787289
4366.000000	58.846867
4364.000000	58.910149
4362.000000	58.974181
4360.000000	59.035227
4358.000000	59.095959
4356.000000	59.157578
4354.000000	59.219474
4352.000000	59.283074
4350.000000	59.348174
4348.000000	59.411070
4346.000000	59.473439
4344.000000	59.536574
4342.000000	59.599037
4340.000000	59.660461
4338.000000	59.723668
4336.000000	59.788115
4334.000000	59.851921
4332.000000	59.915093
4330.000000	59.979344
4328.000000	60.043376
4326.000000	60.108029
4324.000000	60.174438
4322.000000	60.242528
4320.000000	60.309500
4318.000000	60.376022
4316.000000	60.443748
4314.000000	60.512323
4312.000000	60.579609
4310.000000	60.647867
4308.000000	60.716453
4306.000000	60.783605
4304.000000	60.848632
4302.000000	60.913264
4300.000000	60.977705
4298.000000	61.042740
4296.000000	61.107178
4294.000000	61.171167
4292.000000	61.235676
