PE IR       SUBTECH     SPECTRUM    ASCII       PEDS        4.00        
   -1
TE109A_054_80K_after_120K_BG.ASC
20/04/21
17:09:45.00
20/04/21
17:09:45.00
Administrator
TE109A, Tuesday, April 21 2020, 054.
1000.000000
#HDR
-1
-1
#GR
cm-1
EGY
1.0
0.0
6000.000000
-2.000000
2501
8
105.081500
10.914043
#DATA
6000.000000	15.924936
5998.000000	15.956769
5996.000000	15.988993
5994.000000	16.022137
5992.000000	16.055015
5990.000000	16.087922
5988.000000	16.120930
5986.000000	16.153554
5984.000000	16.184518
5982.000000	16.215037
5980.000000	16.246023
5978.000000	16.278755
5976.000000	16.312650
5974.000000	16.347362
5972.000000	16.380970
5970.000000	16.413196
5968.000000	16.444768
5966.000000	16.476846
5964.000000	16.510576
5962.000000	16.545851
5960.000000	16.580341
5958.000000	16.614580
5956.000000	16.647329
5954.000000	16.679124
5952.000000	16.711599
5950.000000	16.744454
5948.000000	16.778084
5946.000000	16.811652
5944.000000	16.844711
5942.000000	16.878677
5940.000000	16.911975
5938.000000	16.945262
5936.000000	16.977947
5934.000000	17.011573
5932.000000	17.044666
5930.000000	17.076415
5928.000000	17.107657
5926.000000	17.139704
5924.000000	17.174452
5922.000000	17.210096
5920.000000	17.246251
5918.000000	17.281693
5916.000000	17.316089
5914.000000	17.351262
5912.000000	17.387944
5910.000000	17.426314
5908.000000	17.463901
5906.000000	17.499518
5904.000000	17.534199
5902.000000	17.569247
5900.000000	17.604653
5898.000000	17.640453
5896.000000	17.675249
5894.000000	17.711010
5892.000000	17.746612
5890.000000	17.782702
5888.000000	17.817736
5886.000000	17.852894
5884.000000	17.887461
5882.000000	17.921308
5880.000000	17.956320
5878.000000	17.993104
5876.000000	18.030853
5874.000000	18.065957
5872.000000	18.099996
5870.000000	18.135926
5868.000000	18.172605
5866.000000	18.210148
5864.000000	18.246536
5862.000000	18.283593
5860.000000	18.321027
5858.000000	18.357756
5856.000000	18.393599
5854.000000	18.430321
5852.000000	18.467746
5850.000000	18.507324
5848.000000	18.546002
5846.000000	18.584567
5844.000000	18.623169
5842.000000	18.663700
5840.000000	18.704701
5838.000000	18.744932
5836.000000	18.785011
5834.000000	18.825314
5832.000000	18.866569
5830.000000	18.908833
5828.000000	18.951460
5826.000000	18.993735
5824.000000	19.033127
5822.000000	19.071849
5820.000000	19.111350
5818.000000	19.151236
5816.000000	19.191749
5814.000000	19.231389
5812.000000	19.270360
5810.000000	19.308929
5808.000000	19.347798
5806.000000	19.387698
5804.000000	19.427959
5802.000000	19.468496
5800.000000	19.507841
5798.000000	19.547389
5796.000000	19.586833
5794.000000	19.628869
5792.000000	19.670764
5790.000000	19.712140
5788.000000	19.753571
5786.000000	19.794391
5784.000000	19.834713
5782.000000	19.874228
5780.000000	19.914613
5778.000000	19.954589
5776.000000	19.994191
5774.000000	20.035049
5772.000000	20.077195
5770.000000	20.120006
5768.000000	20.162317
5766.000000	20.203780
5764.000000	20.245639
5762.000000	20.288105
5760.000000	20.329604
5758.000000	20.370447
5756.000000	20.409279
5754.000000	20.448204
5752.000000	20.488635
5750.000000	20.530719
5748.000000	20.572452
5746.000000	20.614102
5744.000000	20.655064
5742.000000	20.696717
5740.000000	20.737510
5738.000000	20.776619
5736.000000	20.816884
5734.000000	20.856484
5732.000000	20.894423
5730.000000	20.933433
5728.000000	20.973196
5726.000000	21.013872
5724.000000	21.053999
5722.000000	21.094762
5720.000000	21.138219
5718.000000	21.181457
5716.000000	21.223238
5714.000000	21.264501
5712.000000	21.306662
5710.000000	21.350124
5708.000000	21.394573
5706.000000	21.438775
5704.000000	21.481925
5702.000000	21.525312
5700.000000	21.569488
5698.000000	21.613902
5696.000000	21.657147
5694.000000	21.699711
5692.000000	21.743899
5690.000000	21.788632
5688.000000	21.833456
5686.000000	21.878979
5684.000000	21.925833
5682.000000	21.972022
5680.000000	22.016142
5678.000000	22.058935
5676.000000	22.102707
5674.000000	22.147338
5672.000000	22.192269
5670.000000	22.236901
5668.000000	22.281330
5666.000000	22.326201
5664.000000	22.371087
5662.000000	22.416861
5660.000000	22.462722
5658.000000	22.509367
5656.000000	22.553776
5654.000000	22.597468
5652.000000	22.641187
5650.000000	22.686643
5648.000000	22.732421
5646.000000	22.776719
5644.000000	22.820420
5642.000000	22.865417
5640.000000	22.910872
5638.000000	22.955799
5636.000000	22.999373
5634.000000	23.043190
5632.000000	23.088542
5630.000000	23.134458
5628.000000	23.179626
5626.000000	23.224239
5624.000000	23.268510
5622.000000	23.313669
5620.000000	23.359305
5618.000000	23.403797
5616.000000	23.446486
5614.000000	23.490078
5612.000000	23.536092
5610.000000	23.583021
5608.000000	23.627800
5606.000000	23.671197
5604.000000	23.715844
5602.000000	23.762518
5600.000000	23.809843
5598.000000	23.855521
5596.000000	23.898947
5594.000000	23.942516
5592.000000	23.988369
5590.000000	24.036912
5588.000000	24.085167
5586.000000	24.132071
5584.000000	24.178363
5582.000000	24.224043
5580.000000	24.269291
5578.000000	24.315679
5576.000000	24.362798
5574.000000	24.410737
5572.000000	24.458675
5570.000000	24.505777
5568.000000	24.551255
5566.000000	24.596588
5564.000000	24.643285
5562.000000	24.691045
5560.000000	24.738599
5558.000000	24.785420
5556.000000	24.831892
5554.000000	24.878323
5552.000000	24.925218
5550.000000	24.973074
5548.000000	25.019868
5546.000000	25.066756
5544.000000	25.114688
5542.000000	25.163957
5540.000000	25.211836
5538.000000	25.258117
5536.000000	25.302481
5534.000000	25.348631
5532.000000	25.395262
5530.000000	25.442892
5528.000000	25.490133
5526.000000	25.536337
5524.000000	25.581891
5522.000000	25.628235
5520.000000	25.675142
5518.000000	25.721023
5516.000000	25.767366
5514.000000	25.815295
5512.000000	25.861945
5510.000000	25.907235
5508.000000	25.953531
5506.000000	26.002689
5504.000000	26.052035
5502.000000	26.100606
5500.000000	26.148622
5498.000000	26.194012
5496.000000	26.235943
5494.000000	26.278718
5492.000000	26.325793
5490.000000	26.376421
5488.000000	26.428420
5486.000000	26.480994
5484.000000	26.534666
5482.000000	26.585979
5480.000000	26.631568
5478.000000	26.671354
5476.000000	26.712963
5474.000000	26.763376
5472.000000	26.817925
5470.000000	26.869978
5468.000000	26.917640
5466.000000	26.965139
5464.000000	27.012249
5462.000000	27.058401
5460.000000	27.105868
5458.000000	27.157207
5456.000000	27.210352
5454.000000	27.260634
5452.000000	27.306259
5450.000000	27.348539
5448.000000	27.391410
5446.000000	27.437629
5444.000000	27.485320
5442.000000	27.535763
5440.000000	27.586440
5438.000000	27.634515
5436.000000	27.682223
5434.000000	27.728512
5432.000000	27.773767
5430.000000	27.819495
5428.000000	27.871356
5426.000000	27.930639
5424.000000	27.988176
5422.000000	28.039907
5420.000000	28.087031
5418.000000	28.126832
5416.000000	28.161977
5414.000000	28.198746
5412.000000	28.247246
5410.000000	28.308097
5408.000000	28.368973
5406.000000	28.423700
5404.000000	28.472519
5402.000000	28.522291
5400.000000	28.569728
5398.000000	28.612362
5396.000000	28.653919
5394.000000	28.703260
5392.000000	28.759125
5390.000000	28.813150
5388.000000	28.858492
5386.000000	28.904799
5384.000000	28.958388
5382.000000	29.013914
5380.000000	29.059578
5378.000000	29.101011
5376.000000	29.149861
5374.000000	29.209892
5372.000000	29.270645
5370.000000	29.326522
5368.000000	29.375858
5366.000000	29.422268
5364.000000	29.470222
5362.000000	29.522241
5360.000000	29.575509
5358.000000	29.621893
5356.000000	29.659814
5354.000000	29.700899
5352.000000	29.751600
5350.000000	29.807332
5348.000000	29.852330
5346.000000	29.893206
5344.000000	29.941272
5342.000000	29.993354
5340.000000	30.042544
5338.000000	30.091888
5336.000000	30.148670
5334.000000	30.208682
5332.000000	30.262435
5330.000000	30.310295
5328.000000	30.358466
5326.000000	30.411833
5324.000000	30.467831
5322.000000	30.521124
5320.000000	30.571615
5318.000000	30.622176
5316.000000	30.673486
5314.000000	30.724955
5312.000000	30.773518
5310.000000	30.818529
5308.000000	30.864822
5306.000000	30.915818
5304.000000	30.968771
5302.000000	31.021367
5300.000000	31.073568
5298.000000	31.127411
5296.000000	31.180167
5294.000000	31.227639
5292.000000	31.271586
5290.000000	31.319372
5288.000000	31.372094
5286.000000	31.426282
5284.000000	31.479027
5282.000000	31.533014
5280.000000	31.587317
5278.000000	31.642016
5276.000000	31.695875
5274.000000	31.747377
5272.000000	31.794561
5270.000000	31.841115
5268.000000	31.885321
5266.000000	31.928871
5264.000000	31.976927
5262.000000	32.034350
5260.000000	32.094805
5258.000000	32.147695
5256.000000	32.195425
5254.000000	32.245909
5252.000000	32.296658
5250.000000	32.343066
5248.000000	32.388121
5246.000000	32.439684
5244.000000	32.498729
5242.000000	32.559663
5240.000000	32.617689
5238.000000	32.669566
5236.000000	32.717723
5234.000000	32.766786
5232.000000	32.817070
5230.000000	32.865531
5228.000000	32.910008
5226.000000	32.957784
5224.000000	33.011808
5222.000000	33.069314
5220.000000	33.123567
5218.000000	33.176955
5216.000000	33.231862
5214.000000	33.285653
5212.000000	33.331319
5210.000000	33.369734
5208.000000	33.411186
5206.000000	33.466245
5204.000000	33.531706
5202.000000	33.595560
5200.000000	33.649277
5198.000000	33.698746
5196.000000	33.750908
5194.000000	33.806205
5192.000000	33.860387
5190.000000	33.912822
5188.000000	33.963432
5186.000000	34.015535
5184.000000	34.070849
5182.000000	34.128687
5180.000000	34.184120
5178.000000	34.238786
5176.000000	34.293684
5174.000000	34.348386
5172.000000	34.401869
5170.000000	34.455821
5168.000000	34.509492
5166.000000	34.562586
5164.000000	34.615321
5162.000000	34.669329
5160.000000	34.722955
5158.000000	34.775678
5156.000000	34.828232
5154.000000	34.882576
5152.000000	34.937454
5150.000000	34.991802
5148.000000	35.046051
5146.000000	35.100721
5144.000000	35.154260
5142.000000	35.207445
5140.000000	35.261250
5138.000000	35.316712
5136.000000	35.370707
5134.000000	35.423413
5132.000000	35.475120
5130.000000	35.528742
5128.000000	35.584254
5126.000000	35.639014
5124.000000	35.690865
5122.000000	35.741704
5120.000000	35.793775
5118.000000	35.847786
5116.000000	35.902425
5114.000000	35.956586
5112.000000	36.010710
5110.000000	36.065424
5108.000000	36.120491
5106.000000	36.175231
5104.000000	36.229962
5102.000000	36.286283
5100.000000	36.341819
5098.000000	36.396004
5096.000000	36.450434
5094.000000	36.506030
5092.000000	36.561560
5090.000000	36.617051
5088.000000	36.673400
5086.000000	36.730434
5084.000000	36.786192
5082.000000	36.841891
5080.000000	36.897690
5078.000000	36.954079
5076.000000	37.009750
5074.000000	37.065412
5072.000000	37.121792
5070.000000	37.177402
5068.000000	37.230761
5066.000000	37.284917
5064.000000	37.342236
5062.000000	37.400348
5060.000000	37.456107
5058.000000	37.511516
5056.000000	37.567244
5054.000000	37.623073
5052.000000	37.677170
5050.000000	37.733046
5048.000000	37.790331
5046.000000	37.847102
5044.000000	37.901222
5042.000000	37.954971
5040.000000	38.010435
5038.000000	38.066373
5036.000000	38.121686
5034.000000	38.176530
5032.000000	38.231238
5030.000000	38.286468
5028.000000	38.341549
5026.000000	38.397216
5024.000000	38.452841
5022.000000	38.508153
5020.000000	38.563405
5018.000000	38.619107
5016.000000	38.674898
5014.000000	38.730159
5012.000000	38.785857
5010.000000	38.843617
5008.000000	38.901194
5006.000000	38.956879
5004.000000	39.012246
5002.000000	39.070423
5000.000000	39.129372
4998.000000	39.186474
4996.000000	39.242626
4994.000000	39.298531
4992.000000	39.355909
4990.000000	39.415453
4988.000000	39.475357
4986.000000	39.532856
4984.000000	39.589249
4982.000000	39.646112
4980.000000	39.703111
4978.000000	39.761196
4976.000000	39.819534
4974.000000	39.876586
4972.000000	39.931480
4970.000000	39.988250
4968.000000	40.046473
4966.000000	40.104946
4964.000000	40.161615
4962.000000	40.218751
4960.000000	40.276510
4958.000000	40.334601
4956.000000	40.391358
4954.000000	40.447013
4952.000000	40.501835
4950.000000	40.557511
4948.000000	40.613052
4946.000000	40.669117
4944.000000	40.724193
4942.000000	40.779316
4940.000000	40.836238
4938.000000	40.894893
4936.000000	40.951365
4934.000000	41.006004
4932.000000	41.061820
4930.000000	41.119015
4928.000000	41.176324
4926.000000	41.233436
4924.000000	41.289985
4922.000000	41.345961
4920.000000	41.402350
4918.000000	41.460150
4916.000000	41.517776
4914.000000	41.574265
4912.000000	41.630045
4910.000000	41.687391
4908.000000	41.744176
4906.000000	41.801621
4904.000000	41.861387
4902.000000	41.921570
4900.000000	41.978943
4898.000000	42.036995
4896.000000	42.097361
4894.000000	42.155752
4892.000000	42.211429
4890.000000	42.270006
4888.000000	42.331982
4886.000000	42.392412
4884.000000	42.448744
4882.000000	42.504820
4880.000000	42.563126
4878.000000	42.623329
4876.000000	42.681505
4874.000000	42.738683
4872.000000	42.796631
4870.000000	42.855423
4868.000000	42.911840
4866.000000	42.969968
4864.000000	43.030553
4862.000000	43.089878
4860.000000	43.146633
4858.000000	43.204013
4856.000000	43.260808
4854.000000	43.317169
4852.000000	43.375006
4850.000000	43.433056
4848.000000	43.488445
4846.000000	43.545303
4844.000000	43.603847
4842.000000	43.662044
4840.000000	43.718188
4838.000000	43.774781
4836.000000	43.833108
4834.000000	43.892884
4832.000000	43.951141
4830.000000	44.006839
4828.000000	44.062538
4826.000000	44.119380
4824.000000	44.175351
4822.000000	44.231892
4820.000000	44.290292
4818.000000	44.350757
4816.000000	44.409880
4814.000000	44.467780
4812.000000	44.526073
4810.000000	44.586285
4808.000000	44.645338
4806.000000	44.702798
4804.000000	44.760547
4802.000000	44.820609
4800.000000	44.881179
4798.000000	44.941770
4796.000000	45.001720
4794.000000	45.062551
4792.000000	45.123487
4790.000000	45.183745
4788.000000	45.241930
4786.000000	45.300135
4784.000000	45.360289
4782.000000	45.421888
4780.000000	45.481473
4778.000000	45.539777
4776.000000	45.597055
4774.000000	45.654827
4772.000000	45.713459
4770.000000	45.774164
4768.000000	45.833877
4766.000000	45.892824
4764.000000	45.951590
4762.000000	46.011184
4760.000000	46.069306
4758.000000	46.126011
4756.000000	46.182818
4754.000000	46.241649
4752.000000	46.300880
4750.000000	46.359142
4748.000000	46.416265
4746.000000	46.473869
4744.000000	46.531099
4742.000000	46.587679
4740.000000	46.644510
4738.000000	46.703482
4736.000000	46.763351
4734.000000	46.822954
4732.000000	46.880985
4730.000000	46.939395
4728.000000	46.998113
4726.000000	47.055982
4724.000000	47.112324
4722.000000	47.169361
4720.000000	47.229197
4718.000000	47.290671
4716.000000	47.351874
4714.000000	47.413075
4712.000000	47.475134
4710.000000	47.537473
4708.000000	47.599295
4706.000000	47.660669
4704.000000	47.722174
4702.000000	47.785759
4700.000000	47.848692
4698.000000	47.910518
4696.000000	47.972030
4694.000000	48.034234
4692.000000	48.094586
4690.000000	48.154281
4688.000000	48.215898
4686.000000	48.279300
4684.000000	48.340089
4682.000000	48.400320
4680.000000	48.462024
4678.000000	48.523242
4676.000000	48.582672
4674.000000	48.643727
4672.000000	48.705263
4670.000000	48.765569
4668.000000	48.824869
4666.000000	48.884956
4664.000000	48.945659
4662.000000	49.007527
4660.000000	49.068532
4658.000000	49.128326
4656.000000	49.188127
4654.000000	49.249967
4652.000000	49.311117
4650.000000	49.371581
4648.000000	49.431528
4646.000000	49.492230
4644.000000	49.552775
4642.000000	49.613710
4640.000000	49.674699
4638.000000	49.736316
4636.000000	49.797084
4634.000000	49.856221
4632.000000	49.914239
4630.000000	49.973341
4628.000000	50.034436
4626.000000	50.097221
4624.000000	50.159406
4622.000000	50.219955
4620.000000	50.279397
4618.000000	50.341043
4616.000000	50.404835
4614.000000	50.468424
4612.000000	50.530733
4610.000000	50.594525
4608.000000	50.660198
4606.000000	50.726314
4604.000000	50.791093
4602.000000	50.855264
4600.000000	50.919757
4598.000000	50.985140
4596.000000	51.049764
4594.000000	51.112833
4592.000000	51.175165
4590.000000	51.238989
4588.000000	51.303277
4586.000000	51.367142
4584.000000	51.430691
4582.000000	51.494337
4580.000000	51.558173
4578.000000	51.622298
4576.000000	51.684726
4574.000000	51.747540
4572.000000	51.811755
4570.000000	51.875946
4568.000000	51.939507
4566.000000	52.003457
4564.000000	52.065654
4562.000000	52.127757
4560.000000	52.190692
4558.000000	52.254195
4556.000000	52.316399
4554.000000	52.377977
4552.000000	52.439230
4550.000000	52.501361
4548.000000	52.563257
4546.000000	52.626508
4544.000000	52.689718
4542.000000	52.751853
4540.000000	52.813283
4538.000000	52.875440
4536.000000	52.937418
4534.000000	52.998562
4532.000000	53.059506
4530.000000	53.123203
4528.000000	53.187956
4526.000000	53.250953
4524.000000	53.313839
4522.000000	53.378644
4520.000000	53.442614
4518.000000	53.506151
4516.000000	53.570482
4514.000000	53.634931
4512.000000	53.698415
4510.000000	53.762677
4508.000000	53.828820
4506.000000	53.895168
4504.000000	53.959630
4502.000000	54.023908
4500.000000	54.089183
4498.000000	54.154832
4496.000000	54.219238
4494.000000	54.283420
4492.000000	54.348222
4490.000000	54.413944
4488.000000	54.479439
4486.000000	54.544371
4484.000000	54.608329
4482.000000	54.672883
4480.000000	54.737327
4478.000000	54.800744
4476.000000	54.863505
4474.000000	54.926439
4472.000000	54.989643
4470.000000	55.053819
4468.000000	55.116677
4466.000000	55.178437
4464.000000	55.240801
4462.000000	55.303921
4460.000000	55.365937
4458.000000	55.427582
4456.000000	55.488469
4454.000000	55.549390
4452.000000	55.610829
4450.000000	55.672373
4448.000000	55.733366
4446.000000	55.795335
4444.000000	55.858228
4442.000000	55.922442
4440.000000	55.986091
4438.000000	56.048342
4436.000000	56.109650
4434.000000	56.171423
4432.000000	56.233767
4430.000000	56.297164
4428.000000	56.359845
4426.000000	56.422074
4424.000000	56.485648
4422.000000	56.551405
4420.000000	56.615705
4418.000000	56.679120
4416.000000	56.743332
4414.000000	56.807516
4412.000000	56.870240
4410.000000	56.934469
4408.000000	57.000313
4406.000000	57.066230
4404.000000	57.130568
4402.000000	57.194925
4400.000000	57.257926
4398.000000	57.319403
4396.000000	57.381598
4394.000000	57.445492
4392.000000	57.509911
4390.000000	57.573925
4388.000000	57.635721
4386.000000	57.697371
4384.000000	57.758965
4382.000000	57.819229
4380.000000	57.879432
4378.000000	57.940980
4376.000000	58.001901
4374.000000	58.062415
4372.000000	58.121743
4370.000000	58.180320
4368.000000	58.238637
4366.000000	58.299324
4364.000000	58.361178
4362.000000	58.422397
4360.000000	58.482654
4358.000000	58.543151
4356.000000	58.603552
4354.000000	58.665522
4352.000000	58.728395
4350.000000	58.791813
4348.000000	58.854318
4346.000000	58.916411
4344.000000	58.980077
4342.000000	59.045102
4340.000000	59.108395
4338.000000	59.172344
4336.000000	59.238077
4334.000000	59.301684
4332.000000	59.361699
4330.000000	59.424760
4328.000000	59.491030
4326.000000	59.556986
4324.000000	59.623526
4322.000000	59.690945
4320.000000	59.755516
4318.000000	59.820574
4316.000000	59.889899
4314.000000	59.961400
4312.000000	60.030462
4310.000000	60.097034
4308.000000	60.162437
4306.000000	60.228713
4304.000000	60.294874
4302.000000	60.360762
4300.000000	60.427104
4298.000000	60.494196
4296.000000	60.559794
4294.000000	60.623808
4292.000000	60.687286
