PE IR       SUBTECH     SPECTRUM    ASCII       PEDS        4.00        
   -1
TE109A_060_80K_after_125K_BG.ASC
20/04/21
18:18:01.00
20/04/21
18:18:01.00
Administrator
TE109A, Tuesday, April 21 2020, 060.
1000.000000
#HDR
-1
-1
#GR
cm-1
EGY
1.0
0.0
6000.000000
-2.000000
2501
8
104.705796
10.918152
#DATA
6000.000000	15.364023
5998.000000	15.393577
5996.000000	15.424787
5994.000000	15.456608
5992.000000	15.488948
5990.000000	15.519948
5988.000000	15.550750
5986.000000	15.583098
5984.000000	15.614815
5982.000000	15.646680
5980.000000	15.679424
5978.000000	15.713151
5976.000000	15.747533
5974.000000	15.778409
5972.000000	15.808460
5970.000000	15.840152
5968.000000	15.874090
5966.000000	15.908297
5964.000000	15.939583
5962.000000	15.970360
5960.000000	16.003380
5958.000000	16.037331
5956.000000	16.070618
5954.000000	16.102777
5952.000000	16.134426
5950.000000	16.167320
5948.000000	16.199807
5946.000000	16.232349
5944.000000	16.265025
5942.000000	16.296762
5940.000000	16.328286
5938.000000	16.360134
5936.000000	16.392380
5934.000000	16.424830
5932.000000	16.456144
5930.000000	16.488444
5928.000000	16.522510
5926.000000	16.557401
5924.000000	16.591781
5922.000000	16.624836
5920.000000	16.657883
5918.000000	16.691173
5916.000000	16.725142
5914.000000	16.760585
5912.000000	16.796073
5910.000000	16.831447
5908.000000	16.866009
5906.000000	16.901384
5904.000000	16.937565
5902.000000	16.973691
5900.000000	17.008279
5898.000000	17.043237
5896.000000	17.078246
5894.000000	17.113534
5892.000000	17.148002
5890.000000	17.181664
5888.000000	17.215844
5886.000000	17.250796
5884.000000	17.283974
5882.000000	17.316783
5880.000000	17.349649
5878.000000	17.383830
5876.000000	17.420554
5874.000000	17.458143
5872.000000	17.494329
5870.000000	17.527759
5868.000000	17.561362
5866.000000	17.596330
5864.000000	17.633182
5862.000000	17.670633
5860.000000	17.707510
5858.000000	17.744535
5856.000000	17.779318
5854.000000	17.814548
5852.000000	17.850732
5850.000000	17.886951
5848.000000	17.924226
5846.000000	17.961865
5844.000000	18.001845
5842.000000	18.041897
5840.000000	18.082052
5838.000000	18.122312
5836.000000	18.162185
5834.000000	18.202365
5832.000000	18.241598
5830.000000	18.281531
5828.000000	18.322401
5826.000000	18.364272
5824.000000	18.403469
5822.000000	18.440364
5820.000000	18.477054
5818.000000	18.516813
5816.000000	18.557065
5814.000000	18.595648
5812.000000	18.634295
5810.000000	18.673773
5808.000000	18.713995
5806.000000	18.754018
5804.000000	18.792040
5802.000000	18.831435
5800.000000	18.870677
5798.000000	18.910296
5796.000000	18.949044
5794.000000	18.988354
5792.000000	19.028836
5790.000000	19.070707
5788.000000	19.110811
5786.000000	19.149053
5784.000000	19.186946
5782.000000	19.226179
5780.000000	19.267580
5778.000000	19.308929
5776.000000	19.349667
5774.000000	19.389775
5772.000000	19.430321
5770.000000	19.470785
5768.000000	19.511824
5766.000000	19.553194
5764.000000	19.593477
5762.000000	19.632694
5760.000000	19.672880
5758.000000	19.714902
5756.000000	19.756386
5754.000000	19.795067
5752.000000	19.832207
5750.000000	19.871747
5748.000000	19.912213
5746.000000	19.953170
5744.000000	19.992783
5742.000000	20.033289
5740.000000	20.072278
5738.000000	20.109588
5736.000000	20.147686
5734.000000	20.187269
5732.000000	20.228151
5730.000000	20.268810
5728.000000	20.308780
5726.000000	20.348494
5724.000000	20.387118
5722.000000	20.425888
5720.000000	20.466224
5718.000000	20.508261
5716.000000	20.551149
5714.000000	20.594294
5712.000000	20.635322
5710.000000	20.676407
5708.000000	20.718587
5706.000000	20.761985
5704.000000	20.803824
5702.000000	20.844889
5700.000000	20.886999
5698.000000	20.930633
5696.000000	20.975454
5694.000000	21.019391
5692.000000	21.063445
5690.000000	21.107550
5688.000000	21.151955
5686.000000	21.196914
5684.000000	21.240335
5682.000000	21.283359
5680.000000	21.325758
5678.000000	21.369148
5676.000000	21.414199
5674.000000	21.458601
5672.000000	21.501675
5670.000000	21.544093
5668.000000	21.587802
5666.000000	21.632771
5664.000000	21.677844
5662.000000	21.722963
5660.000000	21.767881
5658.000000	21.810586
5656.000000	21.852694
5654.000000	21.897371
5652.000000	21.942841
5650.000000	21.987683
5648.000000	22.030363
5646.000000	22.074048
5644.000000	22.118002
5642.000000	22.161645
5640.000000	22.205336
5638.000000	22.249129
5636.000000	22.293248
5634.000000	22.337602
5632.000000	22.381606
5630.000000	22.425192
5628.000000	22.468334
5626.000000	22.512466
5624.000000	22.557943
5622.000000	22.603125
5620.000000	22.646689
5618.000000	22.690264
5616.000000	22.733456
5614.000000	22.777335
5612.000000	22.822025
5610.000000	22.867414
5608.000000	22.913242
5606.000000	22.957444
5604.000000	23.000965
5602.000000	23.045120
5600.000000	23.089181
5598.000000	23.133010
5596.000000	23.177507
5594.000000	23.223453
5592.000000	23.269067
5590.000000	23.314465
5588.000000	23.358735
5586.000000	23.403319
5584.000000	23.448767
5582.000000	23.495629
5580.000000	23.543105
5578.000000	23.589698
5576.000000	23.634772
5574.000000	23.679550
5572.000000	23.724825
5570.000000	23.771275
5568.000000	23.818601
5566.000000	23.866590
5564.000000	23.912447
5562.000000	23.958764
5560.000000	24.005248
5558.000000	24.051263
5556.000000	24.097069
5554.000000	24.141865
5552.000000	24.187611
5550.000000	24.234387
5548.000000	24.281261
5546.000000	24.328729
5544.000000	24.374922
5542.000000	24.421217
5540.000000	24.466201
5538.000000	24.510302
5536.000000	24.555556
5534.000000	24.602976
5532.000000	24.650379
5530.000000	24.696393
5528.000000	24.741590
5526.000000	24.787382
5524.000000	24.832823
5522.000000	24.877768
5520.000000	24.922267
5518.000000	24.969045
5516.000000	25.018021
5514.000000	25.067073
5512.000000	25.112960
5510.000000	25.156367
5508.000000	25.200127
5506.000000	25.245478
5504.000000	25.293728
5502.000000	25.343188
5500.000000	25.391037
5498.000000	25.436139
5496.000000	25.478342
5494.000000	25.520788
5492.000000	25.565424
5490.000000	25.614354
5488.000000	25.667135
5486.000000	25.719417
5484.000000	25.769576
5482.000000	25.817512
5480.000000	25.862690
5478.000000	25.904132
5476.000000	25.947363
5474.000000	25.996747
5472.000000	26.049279
5470.000000	26.099211
5468.000000	26.146492
5466.000000	26.192548
5464.000000	26.236798
5462.000000	26.281760
5460.000000	26.330960
5458.000000	26.382969
5456.000000	26.434004
5454.000000	26.482063
5452.000000	26.527005
5450.000000	26.568869
5448.000000	26.609564
5446.000000	26.653829
5444.000000	26.700293
5442.000000	26.751576
5440.000000	26.803429
5438.000000	26.853029
5436.000000	26.900932
5434.000000	26.947557
5432.000000	26.992208
5430.000000	27.036855
5428.000000	27.087709
5426.000000	27.145994
5424.000000	27.202028
5422.000000	27.252711
5420.000000	27.300400
5418.000000	27.341567
5416.000000	27.376740
5414.000000	27.413605
5412.000000	27.460538
5410.000000	27.517140
5408.000000	27.574156
5406.000000	27.628671
5404.000000	27.679074
5402.000000	27.727411
5400.000000	27.772603
5398.000000	27.813363
5396.000000	27.853180
5394.000000	27.900229
5392.000000	27.955586
5390.000000	28.011118
5388.000000	28.059354
5386.000000	28.107448
5384.000000	28.159911
5382.000000	28.213273
5380.000000	28.258530
5378.000000	28.300509
5376.000000	28.347890
5374.000000	28.405123
5372.000000	28.463726
5370.000000	28.517755
5368.000000	28.565721
5366.000000	28.612630
5364.000000	28.660850
5362.000000	28.712107
5360.000000	28.763618
5358.000000	28.808472
5356.000000	28.846374
5354.000000	28.889338
5352.000000	28.941707
5350.000000	28.994703
5348.000000	29.036850
5346.000000	29.075823
5344.000000	29.121813
5342.000000	29.170823
5340.000000	29.220100
5338.000000	29.273180
5336.000000	29.330349
5334.000000	29.387096
5332.000000	29.439259
5330.000000	29.488253
5328.000000	29.536295
5326.000000	29.586936
5324.000000	29.641921
5322.000000	29.695500
5320.000000	29.744827
5318.000000	29.792654
5316.000000	29.842224
5314.000000	29.894545
5312.000000	29.944763
5310.000000	29.989994
5308.000000	30.035094
5306.000000	30.085312
5304.000000	30.137724
5302.000000	30.188044
5300.000000	30.237302
5298.000000	30.289473
5296.000000	30.341767
5294.000000	30.389298
5292.000000	30.433322
5290.000000	30.480490
5288.000000	30.532947
5286.000000	30.587730
5284.000000	30.640618
5282.000000	30.693117
5280.000000	30.744529
5278.000000	30.796512
5276.000000	30.848760
5274.000000	30.900829
5272.000000	30.950429
5270.000000	30.996933
5268.000000	31.040025
5266.000000	31.082414
5264.000000	31.129013
5262.000000	31.183702
5260.000000	31.241833
5258.000000	31.293996
5256.000000	31.341837
5254.000000	31.392131
5252.000000	31.442148
5250.000000	31.488440
5248.000000	31.533856
5246.000000	31.585712
5244.000000	31.643530
5242.000000	31.702353
5240.000000	31.758873
5238.000000	31.810626
5236.000000	31.859868
5234.000000	31.908318
5232.000000	31.957493
5230.000000	32.005818
5228.000000	32.051011
5226.000000	32.097577
5224.000000	32.150228
5222.000000	32.207112
5220.000000	32.261109
5218.000000	32.312851
5216.000000	32.366320
5214.000000	32.419251
5212.000000	32.466108
5210.000000	32.504774
5208.000000	32.545644
5206.000000	32.599666
5204.000000	32.664266
5202.000000	32.727507
5200.000000	32.781167
5198.000000	32.830465
5196.000000	32.881950
5194.000000	32.937954
5192.000000	32.992514
5190.000000	33.043077
5188.000000	33.091197
5186.000000	33.142562
5184.000000	33.197887
5182.000000	33.254031
5180.000000	33.307918
5178.000000	33.361130
5176.000000	33.415003
5174.000000	33.468390
5172.000000	33.521103
5170.000000	33.574855
5168.000000	33.627211
5166.000000	33.678714
5164.000000	33.731157
5162.000000	33.786199
5160.000000	33.841236
5158.000000	33.893048
5156.000000	33.944721
5154.000000	33.998312
5152.000000	34.051786
5150.000000	34.103702
5148.000000	34.157107
5146.000000	34.212176
5144.000000	34.264165
5142.000000	34.314446
5140.000000	34.366481
5138.000000	34.421557
5136.000000	34.476437
5134.000000	34.529792
5132.000000	34.581463
5130.000000	34.633350
5128.000000	34.685720
5126.000000	34.738620
5124.000000	34.791698
5122.000000	34.844666
5120.000000	34.896809
5118.000000	34.949951
5116.000000	35.003951
5114.000000	35.057205
5112.000000	35.110679
5110.000000	35.166053
5108.000000	35.221443
5106.000000	35.274938
5104.000000	35.327548
5102.000000	35.381054
5100.000000	35.434217
5098.000000	35.488381
5096.000000	35.542912
5094.000000	35.598300
5092.000000	35.654453
5090.000000	35.710889
5088.000000	35.767505
5086.000000	35.823407
5084.000000	35.877590
5082.000000	35.931151
5080.000000	35.986690
5078.000000	36.042887
5076.000000	36.097365
5074.000000	36.152647
5072.000000	36.208255
5070.000000	36.263266
5068.000000	36.317562
5066.000000	36.373510
5064.000000	36.428679
5062.000000	36.482339
5060.000000	36.535622
5058.000000	36.591105
5056.000000	36.647233
5054.000000	36.702179
5052.000000	36.756500
5050.000000	36.811826
5048.000000	36.867883
5046.000000	36.924023
5044.000000	36.978615
5042.000000	37.032259
5040.000000	37.086430
5038.000000	37.141669
5036.000000	37.196994
5034.000000	37.251213
5032.000000	37.305272
5030.000000	37.359118
5028.000000	37.413772
5026.000000	37.468587
5024.000000	37.523031
5022.000000	37.576533
5020.000000	37.629309
5018.000000	37.683963
5016.000000	37.740515
5014.000000	37.797434
5012.000000	37.854300
5010.000000	37.911789
5008.000000	37.968691
5006.000000	38.024246
5004.000000	38.079235
5002.000000	38.134871
5000.000000	38.191372
4998.000000	38.248467
4996.000000	38.304512
4994.000000	38.360310
4992.000000	38.417258
4990.000000	38.474334
4988.000000	38.529855
4986.000000	38.585166
4984.000000	38.642303
4982.000000	38.700041
4980.000000	38.757654
4978.000000	38.815842
4976.000000	38.874102
4974.000000	38.930619
4972.000000	38.986511
4970.000000	39.042982
4968.000000	39.099809
4966.000000	39.156065
4964.000000	39.211676
4962.000000	39.267470
4960.000000	39.323826
4958.000000	39.380435
4956.000000	39.436123
4954.000000	39.492087
4952.000000	39.548595
4950.000000	39.604522
4948.000000	39.658750
4946.000000	39.713561
4944.000000	39.768435
4942.000000	39.823821
4940.000000	39.879465
4938.000000	39.936576
4936.000000	39.993449
4934.000000	40.049548
4932.000000	40.104463
4930.000000	40.159481
4928.000000	40.214784
4926.000000	40.270276
4924.000000	40.325112
4922.000000	40.380190
4920.000000	40.435777
4918.000000	40.492700
4916.000000	40.550599
4914.000000	40.608600
4912.000000	40.664808
4910.000000	40.720220
4908.000000	40.777163
4906.000000	40.836281
4904.000000	40.894586
4902.000000	40.951725
4900.000000	41.008211
4898.000000	41.065855
4896.000000	41.123871
4894.000000	41.181547
4892.000000	41.238487
4890.000000	41.296104
4888.000000	41.353262
4886.000000	41.410932
4884.000000	41.469822
4882.000000	41.529729
4880.000000	41.588255
4878.000000	41.646952
4876.000000	41.706256
4874.000000	41.764488
4872.000000	41.821121
4870.000000	41.879241
4868.000000	41.937400
4866.000000	41.992858
4864.000000	42.047051
4862.000000	42.103994
4860.000000	42.161257
4858.000000	42.218510
4856.000000	42.276206
4854.000000	42.334998
4852.000000	42.391430
4850.000000	42.446441
4848.000000	42.502108
4846.000000	42.558765
4844.000000	42.613924
4842.000000	42.670793
4840.000000	42.729955
4838.000000	42.787563
4836.000000	42.842187
4834.000000	42.898813
4832.000000	42.957489
4830.000000	43.014972
4828.000000	43.070996
4826.000000	43.127551
4824.000000	43.184538
4822.000000	43.242072
4820.000000	43.299167
4818.000000	43.355277
4816.000000	43.411895
4814.000000	43.471681
4812.000000	43.531563
4810.000000	43.590077
4808.000000	43.647499
4806.000000	43.704953
4804.000000	43.762570
4802.000000	43.822558
4800.000000	43.883376
4798.000000	43.942064
4796.000000	43.998458
4794.000000	44.055932
4792.000000	44.116344
4790.000000	44.178907
4788.000000	44.240451
4786.000000	44.299762
4784.000000	44.358390
4782.000000	44.417944
4780.000000	44.476743
4778.000000	44.534680
4776.000000	44.592745
4774.000000	44.651540
4772.000000	44.710410
4770.000000	44.769377
4768.000000	44.827311
4766.000000	44.883722
4764.000000	44.939952
4762.000000	44.997337
4760.000000	45.055312
4758.000000	45.113527
4756.000000	45.170427
4754.000000	45.226925
4752.000000	45.284445
4750.000000	45.343226
4748.000000	45.400767
4746.000000	45.458893
4744.000000	45.517283
4742.000000	45.575490
4740.000000	45.632775
4738.000000	45.690307
4736.000000	45.747972
4734.000000	45.806301
4732.000000	45.864220
4730.000000	45.920859
4728.000000	45.976018
4726.000000	46.032236
4724.000000	46.091050
4722.000000	46.151806
4720.000000	46.212088
4718.000000	46.272839
4716.000000	46.333017
4714.000000	46.392499
4712.000000	46.452679
4710.000000	46.514457
4708.000000	46.575820
4706.000000	46.637864
4704.000000	46.700162
4702.000000	46.760944
4700.000000	46.820829
4698.000000	46.882739
4696.000000	46.945545
4694.000000	47.007024
4692.000000	47.067533
4690.000000	47.128193
4688.000000	47.188147
4686.000000	47.247831
4684.000000	47.308492
4682.000000	47.369509
4680.000000	47.430306
4678.000000	47.491269
4676.000000	47.550631
4674.000000	47.610343
4672.000000	47.670572
4670.000000	47.730307
4668.000000	47.790277
4666.000000	47.851458
4664.000000	47.910686
4662.000000	47.969840
4660.000000	48.030138
4658.000000	48.090616
4656.000000	48.150743
4654.000000	48.211545
4652.000000	48.271770
4650.000000	48.331752
4648.000000	48.390971
4646.000000	48.451164
4644.000000	48.512405
4642.000000	48.572967
4640.000000	48.631739
4638.000000	48.691136
4636.000000	48.751627
4634.000000	48.813243
4632.000000	48.874280
4630.000000	48.934244
4628.000000	48.993515
4626.000000	49.053362
4624.000000	49.113452
4622.000000	49.174377
4620.000000	49.235953
4618.000000	49.298820
4616.000000	49.360064
4614.000000	49.420895
4612.000000	49.484367
4610.000000	49.549771
4608.000000	49.613561
4606.000000	49.677051
4604.000000	49.740799
4602.000000	49.804190
4600.000000	49.867146
4598.000000	49.930879
4596.000000	49.995495
4594.000000	50.060243
4592.000000	50.124746
4590.000000	50.189699
4588.000000	50.252694
4586.000000	50.314669
4584.000000	50.377076
4582.000000	50.440715
4580.000000	50.504464
4578.000000	50.567561
4576.000000	50.629776
4574.000000	50.693020
4572.000000	50.756928
4570.000000	50.819015
4568.000000	50.879598
4566.000000	50.941194
4564.000000	51.005203
4562.000000	51.070653
4560.000000	51.134488
4558.000000	51.195800
4556.000000	51.256346
4554.000000	51.317740
4552.000000	51.378873
4550.000000	51.440835
4548.000000	51.502086
4546.000000	51.562143
4544.000000	51.623380
4542.000000	51.687977
4540.000000	51.752240
4538.000000	51.813623
4536.000000	51.872194
4534.000000	51.933013
4532.000000	51.997753
4530.000000	52.062747
4528.000000	52.124666
4526.000000	52.185522
4524.000000	52.247100
4522.000000	52.311334
4520.000000	52.375715
4518.000000	52.438938
4516.000000	52.502663
4514.000000	52.568354
4512.000000	52.632593
4510.000000	52.695393
4508.000000	52.759289
4506.000000	52.824616
4504.000000	52.889043
4502.000000	52.954153
4500.000000	53.019758
4498.000000	53.084675
4496.000000	53.149873
4494.000000	53.215100
4492.000000	53.279312
4490.000000	53.343672
4488.000000	53.406972
4486.000000	53.469470
4484.000000	53.533296
4482.000000	53.598314
4480.000000	53.661831
4478.000000	53.724294
4476.000000	53.787520
4474.000000	53.851744
4472.000000	53.914555
4470.000000	53.976531
4468.000000	54.038497
4466.000000	54.101437
4464.000000	54.164518
4462.000000	54.225694
4460.000000	54.285721
4458.000000	54.348013
4456.000000	54.410412
4454.000000	54.471381
4452.000000	54.531711
4450.000000	54.592420
4448.000000	54.654236
4446.000000	54.717522
4444.000000	54.779596
4442.000000	54.841120
4440.000000	54.903965
4438.000000	54.967831
4436.000000	55.030035
4434.000000	55.090908
4432.000000	55.152085
4430.000000	55.214806
4428.000000	55.277717
4426.000000	55.341018
4424.000000	55.404459
4422.000000	55.468259
4420.000000	55.530828
4418.000000	55.592824
4416.000000	55.655401
4414.000000	55.720196
4412.000000	55.785068
4410.000000	55.848558
4408.000000	55.912215
4406.000000	55.977954
4404.000000	56.043294
4402.000000	56.107601
4400.000000	56.171231
4398.000000	56.234263
4396.000000	56.296998
4394.000000	56.360016
4392.000000	56.422216
4390.000000	56.483805
4388.000000	56.544377
4386.000000	56.605088
4384.000000	56.666399
4382.000000	56.728985
4380.000000	56.790717
4378.000000	56.850465
4376.000000	56.909207
4374.000000	56.969741
4372.000000	57.030550
4370.000000	57.091131
4368.000000	57.150494
4366.000000	57.209622
4364.000000	57.270149
4362.000000	57.331833
4360.000000	57.392252
4358.000000	57.453818
4356.000000	57.516228
4354.000000	57.578269
4352.000000	57.640995
4350.000000	57.704954
4348.000000	57.767986
4346.000000	57.831638
4344.000000	57.894844
4342.000000	57.955766
4340.000000	58.016432
4338.000000	58.079564
4336.000000	58.142847
4334.000000	58.206416
4332.000000	58.270652
4330.000000	58.334947
4328.000000	58.398880
4326.000000	58.464327
4324.000000	58.530831
4322.000000	58.597895
4320.000000	58.664731
4318.000000	58.731242
4316.000000	58.797929
4314.000000	58.866057
4312.000000	58.934175
4310.000000	59.001884
4308.000000	59.067895
4306.000000	59.132554
4304.000000	59.198259
4302.000000	59.265719
4300.000000	59.331616
4298.000000	59.395972
4296.000000	59.460291
4294.000000	59.524458
4292.000000	59.587875
