PE IR       SUBTECH     SPECTRUM    ASCII       PEDS        4.00        
   -1
TE109A_044_80K_after_110K_BG.ASC
20/04/21
15:36:18.00
20/04/21
15:36:18.00
Administrator
TE109A, Tuesday, April 21 2020, 044.
1000.000000
#HDR
-1
-1
#GR
cm-1
EGY
1.0
0.0
6000.000000
-2.000000
2501
8
105.360973
10.956691
#DATA
6000.000000	16.514844
5998.000000	16.548918
5996.000000	16.582665
5994.000000	16.614402
5992.000000	16.644750
5990.000000	16.677561
5988.000000	16.711279
5986.000000	16.744847
5984.000000	16.776040
5982.000000	16.806812
5980.000000	16.839107
5978.000000	16.874421
5976.000000	16.908866
5974.000000	16.943869
5972.000000	16.977578
5970.000000	17.011033
5968.000000	17.043780
5966.000000	17.077054
5964.000000	17.112977
5962.000000	17.148981
5960.000000	17.182250
5958.000000	17.214125
5956.000000	17.247768
5954.000000	17.283442
5952.000000	17.318534
5950.000000	17.352119
5948.000000	17.384590
5946.000000	17.418295
5944.000000	17.452025
5942.000000	17.486741
5940.000000	17.522002
5938.000000	17.555668
5936.000000	17.588298
5934.000000	17.620691
5932.000000	17.654066
5930.000000	17.689716
5928.000000	17.725011
5926.000000	17.760438
5924.000000	17.794888
5922.000000	17.829178
5920.000000	17.862829
5918.000000	17.897207
5916.000000	17.932492
5914.000000	17.969639
5912.000000	18.006722
5910.000000	18.043938
5908.000000	18.080435
5906.000000	18.116497
5904.000000	18.152471
5902.000000	18.187993
5900.000000	18.223911
5898.000000	18.261611
5896.000000	18.300231
5894.000000	18.337891
5892.000000	18.373814
5890.000000	18.409311
5888.000000	18.444026
5886.000000	18.479912
5884.000000	18.514903
5882.000000	18.550796
5880.000000	18.588268
5878.000000	18.624756
5876.000000	18.660083
5874.000000	18.695577
5872.000000	18.730888
5870.000000	18.768484
5868.000000	18.806286
5866.000000	18.844286
5864.000000	18.881454
5862.000000	18.919032
5860.000000	18.958158
5858.000000	18.997045
5856.000000	19.032939
5854.000000	19.068138
5852.000000	19.105844
5850.000000	19.144853
5848.000000	19.183594
5846.000000	19.223466
5844.000000	19.265262
5842.000000	19.306933
5840.000000	19.346239
5838.000000	19.386702
5836.000000	19.428991
5834.000000	19.471907
5832.000000	19.513622
5830.000000	19.554678
5828.000000	19.595754
5826.000000	19.636777
5824.000000	19.677696
5822.000000	19.717995
5820.000000	19.757560
5818.000000	19.797016
5816.000000	19.837323
5814.000000	19.878665
5812.000000	19.920469
5810.000000	19.962403
5808.000000	20.004904
5806.000000	20.046831
5804.000000	20.088138
5802.000000	20.128808
5800.000000	20.168735
5798.000000	20.208489
5796.000000	20.247019
5794.000000	20.287464
5792.000000	20.329822
5790.000000	20.372550
5788.000000	20.413201
5786.000000	20.453306
5784.000000	20.494463
5782.000000	20.536345
5780.000000	20.577351
5778.000000	20.617966
5776.000000	20.660522
5774.000000	20.704250
5772.000000	20.747116
5770.000000	20.788227
5768.000000	20.827725
5766.000000	20.867615
5764.000000	20.908355
5762.000000	20.951061
5760.000000	20.993370
5758.000000	21.036406
5756.000000	21.079535
5754.000000	21.123194
5752.000000	21.165807
5750.000000	21.205798
5748.000000	21.244511
5746.000000	21.285408
5744.000000	21.326915
5742.000000	21.369278
5740.000000	21.409730
5738.000000	21.450700
5736.000000	21.491688
5734.000000	21.533239
5732.000000	21.574514
5730.000000	21.614705
5728.000000	21.653235
5726.000000	21.693089
5724.000000	21.735893
5722.000000	21.779667
5720.000000	21.820844
5718.000000	21.861868
5716.000000	21.904679
5714.000000	21.948267
5712.000000	21.990973
5710.000000	22.033715
5708.000000	22.079053
5706.000000	22.123856
5704.000000	22.167542
5702.000000	22.211900
5700.000000	22.257319
5698.000000	22.303278
5696.000000	22.347845
5694.000000	22.392728
5692.000000	22.437786
5690.000000	22.482133
5688.000000	22.527146
5686.000000	22.572966
5684.000000	22.619484
5682.000000	22.664838
5680.000000	22.708671
5678.000000	22.754034
5676.000000	22.800020
5674.000000	22.847182
5672.000000	22.892588
5670.000000	22.937476
5668.000000	22.981994
5666.000000	23.027486
5664.000000	23.072500
5662.000000	23.118378
5660.000000	23.163883
5658.000000	23.208585
5656.000000	23.253005
5654.000000	23.299308
5652.000000	23.345573
5650.000000	23.390987
5648.000000	23.435623
5646.000000	23.482770
5644.000000	23.529509
5642.000000	23.573178
5640.000000	23.616489
5638.000000	23.661614
5636.000000	23.707882
5634.000000	23.754269
5632.000000	23.800507
5630.000000	23.845705
5628.000000	23.890104
5626.000000	23.935172
5624.000000	23.982597
5622.000000	24.029659
5620.000000	24.074189
5618.000000	24.117998
5616.000000	24.161936
5614.000000	24.207616
5612.000000	24.252973
5610.000000	24.299440
5608.000000	24.344903
5606.000000	24.390598
5604.000000	24.436692
5602.000000	24.483057
5600.000000	24.529472
5598.000000	24.576341
5596.000000	24.623108
5594.000000	24.669144
5592.000000	24.714439
5590.000000	24.761965
5588.000000	24.810465
5586.000000	24.857020
5584.000000	24.902828
5582.000000	24.948864
5580.000000	24.995699
5578.000000	25.042035
5576.000000	25.089406
5574.000000	25.138348
5572.000000	25.187899
5570.000000	25.237547
5568.000000	25.285201
5566.000000	25.332417
5564.000000	25.378952
5562.000000	25.426515
5560.000000	25.473586
5558.000000	25.520867
5556.000000	25.567816
5554.000000	25.615157
5552.000000	25.663533
5550.000000	25.712926
5548.000000	25.760080
5546.000000	25.805965
5544.000000	25.852017
5542.000000	25.900401
5540.000000	25.949122
5538.000000	25.997330
5536.000000	26.044312
5534.000000	26.090018
5532.000000	26.135717
5530.000000	26.182911
5528.000000	26.231704
5526.000000	26.281088
5524.000000	26.328993
5522.000000	26.375197
5520.000000	26.421312
5518.000000	26.470014
5516.000000	26.519662
5514.000000	26.568175
5512.000000	26.614330
5510.000000	26.659312
5508.000000	26.704385
5506.000000	26.751064
5504.000000	26.800226
5502.000000	26.850588
5500.000000	26.900037
5498.000000	26.946067
5496.000000	26.989009
5494.000000	27.033940
5492.000000	27.081710
5490.000000	27.131444
5488.000000	27.182921
5486.000000	27.237456
5484.000000	27.292409
5482.000000	27.344325
5480.000000	27.389429
5478.000000	27.429915
5476.000000	27.472963
5474.000000	27.524678
5472.000000	27.580102
5470.000000	27.631663
5468.000000	27.680009
5466.000000	27.727340
5464.000000	27.772227
5462.000000	27.818060
5460.000000	27.869136
5458.000000	27.924500
5456.000000	27.978638
5454.000000	28.028809
5452.000000	28.075461
5450.000000	28.117833
5448.000000	28.158924
5446.000000	28.201750
5444.000000	28.246415
5442.000000	28.297590
5440.000000	28.352078
5438.000000	28.404393
5436.000000	28.453372
5434.000000	28.501125
5432.000000	28.547685
5430.000000	28.594376
5428.000000	28.646522
5426.000000	28.706682
5424.000000	28.765925
5422.000000	28.818983
5420.000000	28.866539
5418.000000	28.905708
5416.000000	28.938692
5414.000000	28.975341
5412.000000	29.023302
5410.000000	29.084178
5408.000000	29.145821
5406.000000	29.204606
5404.000000	29.259176
5402.000000	29.310583
5400.000000	29.356334
5398.000000	29.395447
5396.000000	29.433419
5394.000000	29.481090
5392.000000	29.538698
5390.000000	29.597254
5388.000000	29.647621
5386.000000	29.696990
5384.000000	29.750305
5382.000000	29.803678
5380.000000	29.847818
5378.000000	29.890445
5376.000000	29.940021
5374.000000	29.999900
5372.000000	30.060904
5370.000000	30.117964
5368.000000	30.168496
5366.000000	30.216319
5364.000000	30.266050
5362.000000	30.320000
5360.000000	30.372448
5358.000000	30.416068
5356.000000	30.453447
5354.000000	30.496916
5352.000000	30.548236
5350.000000	30.601704
5348.000000	30.644515
5346.000000	30.685214
5344.000000	30.734087
5342.000000	30.785700
5340.000000	30.834868
5338.000000	30.886855
5336.000000	30.948789
5334.000000	31.013129
5332.000000	31.065891
5330.000000	31.110004
5328.000000	31.157808
5326.000000	31.215744
5324.000000	31.277928
5322.000000	31.333409
5320.000000	31.382165
5318.000000	31.430561
5316.000000	31.480757
5314.000000	31.532354
5312.000000	31.581564
5310.000000	31.627725
5308.000000	31.675343
5306.000000	31.727158
5304.000000	31.781264
5302.000000	31.835084
5300.000000	31.887488
5298.000000	31.939866
5296.000000	31.990696
5294.000000	32.038221
5292.000000	32.083889
5290.000000	32.134201
5288.000000	32.188297
5286.000000	32.242749
5284.000000	32.295122
5282.000000	32.350047
5280.000000	32.407238
5278.000000	32.462866
5276.000000	32.516672
5274.000000	32.568214
5272.000000	32.615732
5270.000000	32.661161
5268.000000	32.704010
5266.000000	32.746872
5264.000000	32.794155
5262.000000	32.852966
5260.000000	32.916472
5258.000000	32.971058
5256.000000	33.018811
5254.000000	33.068700
5252.000000	33.117780
5250.000000	33.162855
5248.000000	33.208205
5246.000000	33.262799
5244.000000	33.324358
5242.000000	33.387173
5240.000000	33.446766
5238.000000	33.500342
5236.000000	33.549776
5234.000000	33.598964
5232.000000	33.648915
5230.000000	33.696629
5228.000000	33.740260
5226.000000	33.787825
5224.000000	33.845441
5222.000000	33.906888
5220.000000	33.961990
5218.000000	34.014323
5216.000000	34.069451
5214.000000	34.125020
5212.000000	34.170011
5210.000000	34.206257
5208.000000	34.246821
5206.000000	34.303790
5204.000000	34.371368
5202.000000	34.436076
5200.000000	34.491612
5198.000000	34.544416
5196.000000	34.598473
5194.000000	34.654654
5192.000000	34.709273
5190.000000	34.762038
5188.000000	34.813561
5186.000000	34.866677
5184.000000	34.920906
5182.000000	34.976448
5180.000000	35.032519
5178.000000	35.088515
5176.000000	35.143672
5174.000000	35.197820
5172.000000	35.251500
5170.000000	35.305605
5168.000000	35.358984
5166.000000	35.412157
5164.000000	35.465872
5162.000000	35.521430
5160.000000	35.575614
5158.000000	35.628527
5156.000000	35.682351
5154.000000	35.737460
5152.000000	35.792560
5150.000000	35.848822
5148.000000	35.905782
5146.000000	35.960907
5144.000000	36.013812
5142.000000	36.067178
5140.000000	36.120683
5138.000000	36.174059
5136.000000	36.227803
5134.000000	36.282902
5132.000000	36.338617
5130.000000	36.393932
5128.000000	36.446882
5126.000000	36.498927
5124.000000	36.551810
5122.000000	36.606161
5120.000000	36.660223
5118.000000	36.714844
5116.000000	36.769734
5114.000000	36.825395
5112.000000	36.881552
5110.000000	36.937183
5108.000000	36.991321
5106.000000	37.046146
5104.000000	37.102434
5102.000000	37.159503
5100.000000	37.214657
5098.000000	37.269647
5096.000000	37.324017
5094.000000	37.379531
5092.000000	37.435287
5090.000000	37.492774
5088.000000	37.550338
5086.000000	37.607363
5084.000000	37.664170
5082.000000	37.721256
5080.000000	37.777228
5078.000000	37.833724
5076.000000	37.890122
5074.000000	37.946913
5072.000000	38.002797
5070.000000	38.059421
5068.000000	38.115379
5066.000000	38.170992
5064.000000	38.227340
5062.000000	38.285564
5060.000000	38.343770
5058.000000	38.401042
5056.000000	38.456193
5054.000000	38.510603
5052.000000	38.565151
5050.000000	38.621869
5048.000000	38.678995
5046.000000	38.736245
5044.000000	38.791651
5042.000000	38.845088
5040.000000	38.898936
5038.000000	38.955284
5036.000000	39.010917
5034.000000	39.066552
5032.000000	39.124043
5030.000000	39.183249
5028.000000	39.239346
5026.000000	39.294295
5024.000000	39.349076
5022.000000	39.405368
5020.000000	39.461711
5018.000000	39.516995
5016.000000	39.572368
5014.000000	39.630302
5012.000000	39.690049
5010.000000	39.747591
5008.000000	39.802401
5006.000000	39.857658
5004.000000	39.915016
5002.000000	39.973668
5000.000000	40.031832
4998.000000	40.091106
4996.000000	40.149389
4994.000000	40.205136
4992.000000	40.259978
4990.000000	40.317510
4988.000000	40.377335
4986.000000	40.437329
4984.000000	40.496597
4982.000000	40.555320
4980.000000	40.613247
4978.000000	40.670738
4976.000000	40.728250
4974.000000	40.786865
4972.000000	40.845506
4970.000000	40.904060
4968.000000	40.960788
4966.000000	41.017023
4964.000000	41.073701
4962.000000	41.133065
4960.000000	41.192055
4958.000000	41.249500
4956.000000	41.305164
4954.000000	41.362669
4952.000000	41.420920
4950.000000	41.477325
4948.000000	41.531797
4946.000000	41.588067
4944.000000	41.646164
4942.000000	41.703707
4940.000000	41.759623
4938.000000	41.816395
4936.000000	41.874408
4934.000000	41.932764
4932.000000	41.989126
4930.000000	42.044655
4928.000000	42.099537
4926.000000	42.155559
4924.000000	42.212372
4922.000000	42.269597
4920.000000	42.326118
4918.000000	42.383512
4916.000000	42.441913
4914.000000	42.500842
4912.000000	42.559596
4910.000000	42.618704
4908.000000	42.676006
4906.000000	42.731055
4904.000000	42.787155
4902.000000	42.848407
4900.000000	42.911406
4898.000000	42.971416
4896.000000	43.028876
4894.000000	43.087281
4892.000000	43.145806
4890.000000	43.204047
4888.000000	43.262809
4886.000000	43.324143
4884.000000	43.384503
4882.000000	43.444482
4880.000000	43.504302
4878.000000	43.564548
4876.000000	43.621794
4874.000000	43.677885
4872.000000	43.735787
4870.000000	43.797248
4868.000000	43.858167
4866.000000	43.915665
4864.000000	43.971004
4862.000000	44.029211
4860.000000	44.087576
4858.000000	44.145047
4856.000000	44.203342
4854.000000	44.264095
4852.000000	44.322777
4850.000000	44.378610
4848.000000	44.433974
4846.000000	44.491658
4844.000000	44.550035
4842.000000	44.608482
4840.000000	44.666783
4838.000000	44.725452
4836.000000	44.783159
4834.000000	44.839751
4832.000000	44.895760
4830.000000	44.953259
4828.000000	45.011667
4826.000000	45.070426
4824.000000	45.128055
4822.000000	45.185897
4820.000000	45.244979
4818.000000	45.305878
4816.000000	45.364780
4814.000000	45.422668
4812.000000	45.481274
4810.000000	45.541181
4808.000000	45.600279
4806.000000	45.659093
4804.000000	45.717849
4802.000000	45.779022
4800.000000	45.840016
4798.000000	45.899744
4796.000000	45.960215
4794.000000	46.023156
4792.000000	46.085278
4790.000000	46.145652
4788.000000	46.204208
4786.000000	46.263443
4784.000000	46.323921
4782.000000	46.384661
4780.000000	46.444443
4778.000000	46.503965
4776.000000	46.563021
4774.000000	46.623056
4772.000000	46.683280
4770.000000	46.742456
4768.000000	46.800868
4766.000000	46.859918
4764.000000	46.918573
4762.000000	46.978082
4760.000000	47.037675
4758.000000	47.096525
4756.000000	47.154535
4754.000000	47.213844
4752.000000	47.272631
4750.000000	47.331093
4748.000000	47.388892
4746.000000	47.446010
4744.000000	47.502958
4742.000000	47.562438
4740.000000	47.622533
4738.000000	47.681094
4736.000000	47.738497
4734.000000	47.797339
4732.000000	47.855508
4730.000000	47.912641
4728.000000	47.970462
4726.000000	48.030942
4724.000000	48.091070
4722.000000	48.151351
4720.000000	48.211095
4718.000000	48.271130
4716.000000	48.331458
4714.000000	48.393257
4712.000000	48.454376
4710.000000	48.516025
4708.000000	48.579118
4706.000000	48.643083
4704.000000	48.706119
4702.000000	48.769497
4700.000000	48.833711
4698.000000	48.897197
4696.000000	48.958321
4694.000000	49.018673
4692.000000	49.079983
4690.000000	49.141997
4688.000000	49.202735
4686.000000	49.263465
4684.000000	49.324880
4682.000000	49.388029
4680.000000	49.449858
4678.000000	49.509543
4676.000000	49.569392
4674.000000	49.632173
4672.000000	49.694364
4670.000000	49.755538
4668.000000	49.816350
4666.000000	49.877169
4664.000000	49.936192
4662.000000	49.995127
4660.000000	50.056502
4658.000000	50.121304
4656.000000	50.184459
4654.000000	50.245409
4652.000000	50.304583
4650.000000	50.364828
4648.000000	50.425981
4646.000000	50.487986
4644.000000	50.549078
4642.000000	50.610572
4640.000000	50.671225
4638.000000	50.733033
4636.000000	50.795615
4634.000000	50.857555
4632.000000	50.916645
4630.000000	50.976199
4628.000000	51.036469
4626.000000	51.098029
4624.000000	51.159666
4622.000000	51.222237
4620.000000	51.284207
4618.000000	51.345817
4616.000000	51.407769
4614.000000	51.471885
4612.000000	51.536904
4610.000000	51.601394
4608.000000	51.663874
4606.000000	51.727093
4604.000000	51.792684
4602.000000	51.859661
4600.000000	51.925629
4598.000000	51.992186
4596.000000	52.058387
4594.000000	52.122596
4592.000000	52.185421
4590.000000	52.249330
4588.000000	52.313375
4586.000000	52.377032
4584.000000	52.439588
4582.000000	52.502949
4580.000000	52.567957
4578.000000	52.634064
4576.000000	52.699180
4574.000000	52.764206
4572.000000	52.827945
4570.000000	52.891270
4568.000000	52.953856
4566.000000	53.016415
4564.000000	53.080739
4562.000000	53.146392
4560.000000	53.208510
4558.000000	53.269565
4556.000000	53.332178
4554.000000	53.395211
4552.000000	53.457385
4550.000000	53.520842
4548.000000	53.583331
4546.000000	53.645099
4544.000000	53.707837
4542.000000	53.771370
4540.000000	53.833873
4538.000000	53.897338
4536.000000	53.959834
4534.000000	54.019821
4532.000000	54.081160
4530.000000	54.146663
4528.000000	54.212611
4526.000000	54.276704
4524.000000	54.338724
4522.000000	54.401825
4520.000000	54.466828
4518.000000	54.531806
4516.000000	54.595459
4514.000000	54.660755
4512.000000	54.726764
4510.000000	54.792555
4508.000000	54.856790
4506.000000	54.920459
4504.000000	54.984439
4502.000000	55.051015
4500.000000	55.118257
4498.000000	55.184728
4496.000000	55.249869
4494.000000	55.315928
4492.000000	55.381050
4490.000000	55.445620
4488.000000	55.510477
4486.000000	55.575861
4484.000000	55.640178
4482.000000	55.705033
4480.000000	55.769673
4478.000000	55.834477
4476.000000	55.899185
4474.000000	55.962875
4472.000000	56.023974
4470.000000	56.084363
4468.000000	56.145906
4466.000000	56.210174
4464.000000	56.274331
4462.000000	56.337576
4460.000000	56.400053
4458.000000	56.462255
4456.000000	56.524337
4454.000000	56.587817
4452.000000	56.649973
4450.000000	56.710762
4448.000000	56.771706
4446.000000	56.833774
4444.000000	56.896430
4442.000000	56.959704
4440.000000	57.022444
4438.000000	57.085409
4436.000000	57.148563
4434.000000	57.212831
4432.000000	57.277712
4430.000000	57.341961
4428.000000	57.403813
4426.000000	57.466015
4424.000000	57.528781
4422.000000	57.592005
4420.000000	57.655077
4418.000000	57.719966
4416.000000	57.785584
4414.000000	57.850400
4412.000000	57.913709
4410.000000	57.977459
4408.000000	58.040709
4406.000000	58.105099
4404.000000	58.171343
4402.000000	58.238450
4400.000000	58.303103
4398.000000	58.365423
4396.000000	58.426921
4394.000000	58.490764
4392.000000	58.554536
4390.000000	58.617143
4388.000000	58.678890
4386.000000	58.742153
4384.000000	58.804605
4382.000000	58.865980
4380.000000	58.927331
4378.000000	58.988422
4376.000000	59.047324
4374.000000	59.107089
4372.000000	59.166157
4370.000000	59.225194
4368.000000	59.286714
4366.000000	59.348406
4364.000000	59.408542
4362.000000	59.470937
4360.000000	59.532951
4358.000000	59.593767
4356.000000	59.655357
4354.000000	59.718724
4352.000000	59.782741
4350.000000	59.847154
4348.000000	59.909214
4346.000000	59.970493
4344.000000	60.033173
4342.000000	60.097880
4340.000000	60.162325
4338.000000	60.226341
4336.000000	60.288793
4334.000000	60.351775
4332.000000	60.416402
4330.000000	60.481328
4328.000000	60.544166
4326.000000	60.608776
4324.000000	60.676007
4322.000000	60.743822
4320.000000	60.810415
4318.000000	60.878532
4316.000000	60.947581
4314.000000	61.015073
4312.000000	61.080349
4310.000000	61.147583
4308.000000	61.215760
4306.000000	61.283081
4304.000000	61.349074
4302.000000	61.416502
4300.000000	61.483774
4298.000000	61.548774
4296.000000	61.611958
4294.000000	61.676910
4292.000000	61.742279
