PE IR       SUBTECH     SPECTRUM    ASCII       PEDS        4.00        
   -1
TE109A_086_80K_after_160K_BG.ASC
20/04/21
21:56:53.00
20/04/21
21:56:53.00
Administrator
TE109A, Tuesday, April 21 2020, 086.
1000.000000
#HDR
-1
-1
#GR
cm-1
EGY
1.0
0.0
6000.000000
-2.000000
2501
8
105.344558
10.971434
#DATA
6000.000000	16.487147
5998.000000	16.520201
5996.000000	16.553362
5994.000000	16.585814
5992.000000	16.617534
5990.000000	16.649981
5988.000000	16.682939
5986.000000	16.717476
5984.000000	16.752911
5982.000000	16.785832
5980.000000	16.817943
5978.000000	16.850131
5976.000000	16.883600
5974.000000	16.917292
5972.000000	16.950860
5970.000000	16.985261
5968.000000	17.019082
5966.000000	17.052345
5964.000000	17.085357
5962.000000	17.120291
5960.000000	17.154218
5958.000000	17.187240
5956.000000	17.220278
5954.000000	17.254734
5952.000000	17.290062
5950.000000	17.325354
5948.000000	17.360297
5946.000000	17.394979
5944.000000	17.429208
5942.000000	17.463210
5940.000000	17.496180
5938.000000	17.529483
5936.000000	17.563170
5934.000000	17.597168
5932.000000	17.631736
5930.000000	17.665543
5928.000000	17.699682
5926.000000	17.735399
5924.000000	17.770054
5922.000000	17.804551
5920.000000	17.838300
5918.000000	17.874148
5916.000000	17.913044
5914.000000	17.951190
5912.000000	17.987078
5910.000000	18.022687
5908.000000	18.058985
5906.000000	18.095702
5904.000000	18.130787
5902.000000	18.165483
5900.000000	18.202786
5898.000000	18.241476
5896.000000	18.278225
5894.000000	18.313896
5892.000000	18.347820
5890.000000	18.383438
5888.000000	18.418526
5886.000000	18.454806
5884.000000	18.491211
5882.000000	18.527863
5880.000000	18.564636
5878.000000	18.600454
5876.000000	18.635931
5874.000000	18.672243
5872.000000	18.708593
5870.000000	18.744758
5868.000000	18.780369
5866.000000	18.818211
5864.000000	18.857208
5862.000000	18.896553
5860.000000	18.934806
5858.000000	18.972979
5856.000000	19.010915
5854.000000	19.049217
5852.000000	19.087931
5850.000000	19.126476
5848.000000	19.164111
5846.000000	19.202193
5844.000000	19.242696
5842.000000	19.283628
5840.000000	19.323857
5838.000000	19.364744
5836.000000	19.406496
5834.000000	19.449900
5832.000000	19.492311
5830.000000	19.533847
5828.000000	19.575464
5826.000000	19.617178
5824.000000	19.658733
5822.000000	19.698664
5820.000000	19.738402
5818.000000	19.779398
5816.000000	19.820229
5814.000000	19.859457
5812.000000	19.898966
5810.000000	19.941241
5808.000000	19.983200
5806.000000	20.023573
5804.000000	20.063287
5802.000000	20.105451
5800.000000	20.147487
5798.000000	20.186948
5796.000000	20.224399
5794.000000	20.264458
5792.000000	20.307800
5790.000000	20.351280
5788.000000	20.393820
5786.000000	20.435128
5784.000000	20.476258
5782.000000	20.517579
5780.000000	20.557357
5778.000000	20.598211
5776.000000	20.639720
5774.000000	20.681384
5772.000000	20.722903
5770.000000	20.765111
5768.000000	20.808072
5766.000000	20.851497
5764.000000	20.893623
5762.000000	20.934955
5760.000000	20.976690
5758.000000	21.018874
5756.000000	21.061075
5754.000000	21.103134
5752.000000	21.143588
5750.000000	21.183240
5748.000000	21.223953
5746.000000	21.266048
5744.000000	21.309279
5742.000000	21.349831
5740.000000	21.390141
5738.000000	21.431314
5736.000000	21.472822
5734.000000	21.513767
5732.000000	21.552481
5730.000000	21.591809
5728.000000	21.632122
5726.000000	21.674185
5724.000000	21.716570
5722.000000	21.757990
5720.000000	21.798551
5718.000000	21.840347
5716.000000	21.882987
5714.000000	21.926563
5712.000000	21.970341
5710.000000	22.016278
5708.000000	22.063187
5706.000000	22.108736
5704.000000	22.151943
5702.000000	22.195184
5700.000000	22.238473
5698.000000	22.282282
5696.000000	22.327166
5694.000000	22.373207
5692.000000	22.417504
5690.000000	22.460557
5688.000000	22.504902
5686.000000	22.552347
5684.000000	22.598562
5682.000000	22.643468
5680.000000	22.688616
5678.000000	22.733823
5676.000000	22.779426
5674.000000	22.824691
5672.000000	22.871375
5670.000000	22.917857
5668.000000	22.964240
5666.000000	23.009921
5664.000000	23.054167
5662.000000	23.098795
5660.000000	23.144264
5658.000000	23.190769
5656.000000	23.236700
5654.000000	23.282624
5652.000000	23.327756
5650.000000	23.374299
5648.000000	23.420191
5646.000000	23.466109
5644.000000	23.510222
5642.000000	23.553702
5640.000000	23.598045
5638.000000	23.643574
5636.000000	23.689197
5634.000000	23.735301
5632.000000	23.781733
5630.000000	23.828683
5628.000000	23.873738
5626.000000	23.917166
5624.000000	23.961666
5622.000000	24.008113
5620.000000	24.055016
5618.000000	24.100087
5616.000000	24.143859
5614.000000	24.188888
5612.000000	24.235218
5610.000000	24.282118
5608.000000	24.327731
5606.000000	24.373198
5604.000000	24.417549
5602.000000	24.462176
5600.000000	24.507787
5598.000000	24.555535
5596.000000	24.603445
5594.000000	24.650342
5592.000000	24.696652
5590.000000	24.742870
5588.000000	24.788584
5586.000000	24.835207
5584.000000	24.881679
5582.000000	24.927544
5580.000000	24.973981
5578.000000	25.023186
5576.000000	25.072084
5574.000000	25.120144
5572.000000	25.167261
5570.000000	25.215441
5568.000000	25.263411
5566.000000	25.311011
5564.000000	25.358962
5562.000000	25.408435
5560.000000	25.456829
5558.000000	25.502953
5556.000000	25.546875
5554.000000	25.591722
5552.000000	25.638572
5550.000000	25.687355
5548.000000	25.735856
5546.000000	25.784316
5544.000000	25.832483
5542.000000	25.880021
5540.000000	25.926860
5538.000000	25.974565
5536.000000	26.023504
5534.000000	26.071808
5532.000000	26.117094
5530.000000	26.162189
5528.000000	26.209879
5526.000000	26.259402
5524.000000	26.307030
5522.000000	26.354451
5520.000000	26.401435
5518.000000	26.448909
5516.000000	26.495690
5514.000000	26.544092
5512.000000	26.592207
5510.000000	26.639412
5508.000000	26.685326
5506.000000	26.733200
5504.000000	26.783016
5502.000000	26.832436
5500.000000	26.881283
5498.000000	26.927738
5496.000000	26.971280
5494.000000	27.015252
5492.000000	27.060866
5490.000000	27.110539
5488.000000	27.163348
5486.000000	27.218215
5484.000000	27.272553
5482.000000	27.322792
5480.000000	27.367723
5478.000000	27.409054
5476.000000	27.453155
5474.000000	27.504907
5472.000000	27.559684
5470.000000	27.611338
5468.000000	27.658882
5466.000000	27.706898
5464.000000	27.754376
5462.000000	27.802031
5460.000000	27.851435
5458.000000	27.903052
5456.000000	27.955206
5454.000000	28.005968
5452.000000	28.053215
5450.000000	28.096404
5448.000000	28.137838
5446.000000	28.183078
5444.000000	28.232618
5442.000000	28.287382
5440.000000	28.342719
5438.000000	28.391351
5436.000000	28.435088
5434.000000	28.480275
5432.000000	28.528526
5430.000000	28.577844
5428.000000	28.628569
5426.000000	28.683762
5424.000000	28.739259
5422.000000	28.793734
5420.000000	28.844444
5418.000000	28.885774
5416.000000	28.920278
5414.000000	28.960149
5412.000000	29.011771
5410.000000	29.072091
5408.000000	29.130227
5406.000000	29.184070
5404.000000	29.234281
5402.000000	29.283624
5400.000000	29.331111
5398.000000	29.374797
5396.000000	29.417508
5394.000000	29.466398
5392.000000	29.522660
5390.000000	29.578954
5388.000000	29.628357
5386.000000	29.675611
5384.000000	29.727774
5382.000000	29.781104
5380.000000	29.827768
5378.000000	29.870839
5376.000000	29.920544
5374.000000	29.979016
5372.000000	30.037946
5370.000000	30.092170
5368.000000	30.142590
5366.000000	30.192359
5364.000000	30.242869
5362.000000	30.294560
5360.000000	30.345076
5358.000000	30.391147
5356.000000	30.432728
5354.000000	30.479619
5352.000000	30.532716
5350.000000	30.586266
5348.000000	30.630095
5346.000000	30.672380
5344.000000	30.721774
5342.000000	30.773993
5340.000000	30.822890
5338.000000	30.873942
5336.000000	30.931905
5334.000000	30.990830
5332.000000	31.043756
5330.000000	31.091646
5328.000000	31.141210
5326.000000	31.194957
5324.000000	31.251156
5322.000000	31.304838
5320.000000	31.354961
5318.000000	31.405555
5316.000000	31.456455
5314.000000	31.507976
5312.000000	31.557265
5310.000000	31.603106
5308.000000	31.650600
5306.000000	31.704145
5304.000000	31.760188
5302.000000	31.812512
5300.000000	31.862243
5298.000000	31.913769
5296.000000	31.964604
5294.000000	32.011457
5292.000000	32.057447
5290.000000	32.107669
5288.000000	32.161312
5286.000000	32.217280
5284.000000	32.272629
5282.000000	32.327857
5280.000000	32.381445
5278.000000	32.434502
5276.000000	32.486832
5274.000000	32.537572
5272.000000	32.587158
5270.000000	32.637854
5268.000000	32.685103
5266.000000	32.728378
5264.000000	32.775199
5262.000000	32.833400
5260.000000	32.895781
5258.000000	32.948440
5256.000000	32.995070
5254.000000	33.046977
5252.000000	33.100850
5250.000000	33.149095
5248.000000	33.194256
5246.000000	33.245722
5244.000000	33.304413
5242.000000	33.364286
5240.000000	33.421044
5238.000000	33.473410
5236.000000	33.523524
5234.000000	33.572613
5232.000000	33.621716
5230.000000	33.670223
5228.000000	33.717040
5226.000000	33.766347
5224.000000	33.821957
5222.000000	33.881443
5220.000000	33.937047
5218.000000	33.989341
5216.000000	34.041958
5214.000000	34.094928
5212.000000	34.143500
5210.000000	34.185805
5208.000000	34.228187
5206.000000	34.281333
5204.000000	34.344925
5202.000000	34.408601
5200.000000	34.463399
5198.000000	34.515321
5196.000000	34.569907
5194.000000	34.626862
5192.000000	34.680561
5190.000000	34.731494
5188.000000	34.782558
5186.000000	34.835429
5184.000000	34.889907
5182.000000	34.946020
5180.000000	35.003304
5178.000000	35.060245
5176.000000	35.114998
5174.000000	35.167794
5172.000000	35.220727
5170.000000	35.276358
5168.000000	35.333840
5166.000000	35.389637
5164.000000	35.443030
5162.000000	35.496545
5160.000000	35.549817
5158.000000	35.601838
5156.000000	35.654443
5154.000000	35.709999
5152.000000	35.766928
5150.000000	35.822797
5148.000000	35.877984
5146.000000	35.933088
5144.000000	35.987242
5142.000000	36.040837
5140.000000	36.093368
5138.000000	36.145847
5136.000000	36.198746
5134.000000	36.253660
5132.000000	36.308542
5130.000000	36.361864
5128.000000	36.413894
5126.000000	36.467146
5124.000000	36.521180
5122.000000	36.575870
5120.000000	36.630306
5118.000000	36.684946
5116.000000	36.739472
5114.000000	36.793900
5112.000000	36.849084
5110.000000	36.905111
5108.000000	36.959869
5106.000000	37.012261
5104.000000	37.066024
5102.000000	37.123577
5100.000000	37.181560
5098.000000	37.236850
5096.000000	37.292852
5094.000000	37.350279
5092.000000	37.406677
5090.000000	37.462707
5088.000000	37.519836
5086.000000	37.577063
5084.000000	37.632003
5082.000000	37.687820
5080.000000	37.744986
5078.000000	37.802310
5076.000000	37.859082
5074.000000	37.914913
5072.000000	37.970150
5070.000000	38.025280
5068.000000	38.081090
5066.000000	38.139673
5064.000000	38.199322
5062.000000	38.256652
5060.000000	38.310872
5058.000000	38.366045
5056.000000	38.421993
5054.000000	38.477080
5052.000000	38.532015
5050.000000	38.587607
5048.000000	38.642493
5046.000000	38.698142
5044.000000	38.755514
5042.000000	38.813071
5040.000000	38.868792
5038.000000	38.923626
5036.000000	38.978154
5034.000000	39.034305
5032.000000	39.090350
5030.000000	39.146913
5028.000000	39.202641
5026.000000	39.259327
5024.000000	39.315648
5022.000000	39.371985
5020.000000	39.427095
5018.000000	39.481632
5016.000000	39.537368
5014.000000	39.595272
5012.000000	39.654009
5010.000000	39.711955
5008.000000	39.768194
5006.000000	39.823783
5004.000000	39.879904
5002.000000	39.937795
5000.000000	39.996270
4998.000000	40.055855
4996.000000	40.114594
4994.000000	40.172233
4992.000000	40.228950
4990.000000	40.286698
4988.000000	40.344172
4986.000000	40.402067
4984.000000	40.460444
4982.000000	40.519868
4980.000000	40.578441
4978.000000	40.636242
4976.000000	40.694236
4974.000000	40.752256
4972.000000	40.809988
4970.000000	40.867484
4968.000000	40.924747
4966.000000	40.982090
4964.000000	41.040100
4962.000000	41.098305
4960.000000	41.154274
4958.000000	41.210358
4956.000000	41.267661
4954.000000	41.326635
4952.000000	41.382839
4950.000000	41.437362
4948.000000	41.492957
4946.000000	41.552132
4944.000000	41.611264
4942.000000	41.667872
4940.000000	41.722869
4938.000000	41.778638
4936.000000	41.835323
4934.000000	41.892983
4932.000000	41.950523
4930.000000	42.008641
4928.000000	42.064856
4926.000000	42.119167
4924.000000	42.173738
4922.000000	42.230843
4920.000000	42.289310
4918.000000	42.348330
4916.000000	42.408977
4914.000000	42.467205
4912.000000	42.522832
4910.000000	42.580566
4908.000000	42.640222
4906.000000	42.697767
4904.000000	42.754357
4902.000000	42.813950
4900.000000	42.874723
4898.000000	42.934052
4896.000000	42.991685
4894.000000	43.049723
4892.000000	43.109109
4890.000000	43.169098
4888.000000	43.229331
4886.000000	43.288892
4884.000000	43.345924
4882.000000	43.403376
4880.000000	43.463119
4878.000000	43.523049
4876.000000	43.581250
4874.000000	43.639766
4872.000000	43.698645
4870.000000	43.757766
4868.000000	43.816377
4866.000000	43.874660
4864.000000	43.932363
4862.000000	43.991459
4860.000000	44.050447
4858.000000	44.108585
4856.000000	44.164990
4854.000000	44.222690
4852.000000	44.281503
4850.000000	44.340507
4848.000000	44.398301
4846.000000	44.457378
4844.000000	44.516503
4842.000000	44.573884
4840.000000	44.628952
4838.000000	44.684693
4836.000000	44.742106
4834.000000	44.800355
4832.000000	44.857294
4830.000000	44.913874
4828.000000	44.972099
4826.000000	45.031572
4824.000000	45.089496
4822.000000	45.146731
4820.000000	45.204561
4818.000000	45.263254
4816.000000	45.320981
4814.000000	45.379235
4812.000000	45.438678
4810.000000	45.499383
4808.000000	45.559483
4806.000000	45.619601
4804.000000	45.679428
4802.000000	45.738857
4800.000000	45.797869
4798.000000	45.858190
4796.000000	45.918942
4794.000000	45.980000
4792.000000	46.039957
4790.000000	46.099558
4788.000000	46.159548
4786.000000	46.221898
4784.000000	46.284526
4782.000000	46.345619
4780.000000	46.403818
4778.000000	46.462057
4776.000000	46.523040
4774.000000	46.585521
4772.000000	46.645186
4770.000000	46.702905
4768.000000	46.760341
4766.000000	46.818975
4764.000000	46.878838
4762.000000	46.939376
4760.000000	46.997700
4758.000000	47.055117
4756.000000	47.112926
4754.000000	47.171046
4752.000000	47.229000
4750.000000	47.288307
4748.000000	47.346858
4746.000000	47.403918
4744.000000	47.460968
4742.000000	47.519747
4740.000000	47.578453
4738.000000	47.637221
4736.000000	47.694851
4734.000000	47.752008
4732.000000	47.810879
4730.000000	47.871318
4728.000000	47.930122
4726.000000	47.988000
4724.000000	48.046677
4722.000000	48.106039
4720.000000	48.165831
4718.000000	48.226721
4716.000000	48.287712
4714.000000	48.349100
4712.000000	48.410767
4710.000000	48.473767
4708.000000	48.537344
4706.000000	48.600693
4704.000000	48.663135
4702.000000	48.726346
4700.000000	48.788659
4698.000000	48.849436
4696.000000	48.910494
4694.000000	48.973797
4692.000000	49.035907
4690.000000	49.096394
4688.000000	49.156510
4686.000000	49.217671
4684.000000	49.280229
4682.000000	49.343271
4680.000000	49.403935
4678.000000	49.464919
4676.000000	49.527576
4674.000000	49.589555
4672.000000	49.649669
4670.000000	49.711072
4668.000000	49.772974
4666.000000	49.834115
4664.000000	49.894631
4662.000000	49.955763
4660.000000	50.016593
4658.000000	50.076860
4656.000000	50.137178
4654.000000	50.196687
4652.000000	50.256022
4650.000000	50.317999
4648.000000	50.381102
4646.000000	50.442680
4644.000000	50.503975
4642.000000	50.565603
4640.000000	50.625478
4638.000000	50.684791
4636.000000	50.745026
4634.000000	50.806320
4632.000000	50.867428
4630.000000	50.928725
4628.000000	50.989269
4626.000000	51.049252
4624.000000	51.109471
4622.000000	51.172226
4620.000000	51.235614
4618.000000	51.298107
4616.000000	51.359166
4614.000000	51.422022
4612.000000	51.485548
4610.000000	51.549489
4608.000000	51.614683
4606.000000	51.680871
4604.000000	51.744885
4602.000000	51.809102
4600.000000	51.873698
4598.000000	51.937168
4596.000000	52.000654
4594.000000	52.065442
4592.000000	52.130372
4590.000000	52.195980
4588.000000	52.260639
4586.000000	52.324102
4584.000000	52.388753
4582.000000	52.455084
4580.000000	52.520560
4578.000000	52.585759
4576.000000	52.650807
4574.000000	52.714933
4572.000000	52.778004
4570.000000	52.840953
4568.000000	52.903512
4566.000000	52.966236
4564.000000	53.029018
4562.000000	53.091449
4560.000000	53.153424
4558.000000	53.215339
4556.000000	53.278570
4554.000000	53.342845
4552.000000	53.403863
4550.000000	53.464117
4548.000000	53.527601
4546.000000	53.592449
4544.000000	53.655292
4542.000000	53.717022
4540.000000	53.779619
4538.000000	53.844079
4536.000000	53.907074
4534.000000	53.968528
4532.000000	54.030431
4530.000000	54.093109
4528.000000	54.156908
4526.000000	54.221924
4524.000000	54.286122
4522.000000	54.349687
4520.000000	54.412599
4518.000000	54.475939
4516.000000	54.540661
4514.000000	54.606100
4512.000000	54.671542
4510.000000	54.736452
4508.000000	54.799710
4506.000000	54.864434
4504.000000	54.931324
4502.000000	54.997395
4500.000000	55.061238
4498.000000	55.126166
4496.000000	55.192052
4494.000000	55.257897
4492.000000	55.323491
4490.000000	55.389526
4488.000000	55.453408
4486.000000	55.516919
4484.000000	55.581812
4482.000000	55.646617
4480.000000	55.710019
4478.000000	55.774613
4476.000000	55.839312
4474.000000	55.902382
4472.000000	55.965343
4470.000000	56.030307
4468.000000	56.094663
4466.000000	56.157000
4464.000000	56.217120
4462.000000	56.277669
4460.000000	56.339877
4458.000000	56.403076
4456.000000	56.465815
4454.000000	56.528783
4452.000000	56.590252
4450.000000	56.651670
4448.000000	56.713130
4446.000000	56.774985
4444.000000	56.838587
4442.000000	56.903597
4440.000000	56.967113
4438.000000	57.029278
4436.000000	57.090221
4434.000000	57.151508
4432.000000	57.213670
4430.000000	57.276180
4428.000000	57.339838
4426.000000	57.404656
4424.000000	57.467625
4422.000000	57.530686
4420.000000	57.594975
4418.000000	57.659354
4416.000000	57.723499
4414.000000	57.787335
4412.000000	57.850777
4410.000000	57.916407
4408.000000	57.982919
4406.000000	58.047877
4404.000000	58.111969
4402.000000	58.176342
4400.000000	58.239694
4398.000000	58.303084
4396.000000	58.367524
4394.000000	58.432062
4392.000000	58.494336
4390.000000	58.555931
4388.000000	58.618831
4386.000000	58.681856
4384.000000	58.742018
4382.000000	58.801464
4380.000000	58.861272
4378.000000	58.922272
4376.000000	58.983558
4374.000000	59.044650
4372.000000	59.105251
4370.000000	59.166355
4368.000000	59.226389
4366.000000	59.286736
4364.000000	59.347394
4362.000000	59.408293
4360.000000	59.469528
4358.000000	59.531380
4356.000000	59.592729
4354.000000	59.653947
4352.000000	59.715172
4350.000000	59.777385
4348.000000	59.840411
4346.000000	59.903846
4344.000000	59.967025
4342.000000	60.030516
4340.000000	60.093274
4338.000000	60.155467
4336.000000	60.217941
4334.000000	60.280662
4332.000000	60.344319
4330.000000	60.410822
4328.000000	60.477996
4326.000000	60.544226
4324.000000	60.609565
4322.000000	60.676019
4320.000000	60.745017
4318.000000	60.814581
4316.000000	60.880328
4314.000000	60.944893
4312.000000	61.013195
4310.000000	61.083662
4308.000000	61.150842
4306.000000	61.216855
4304.000000	61.283990
4302.000000	61.350491
4300.000000	61.414185
4298.000000	61.477647
4296.000000	61.542552
4294.000000	61.608867
4292.000000	61.673398
