PE IR       SUBTECH     SPECTRUM    ASCII       PEDS        4.00        
   -1
TE109A_038_80K_after_105K_BG.ASC
20/04/21
14:48:04.00
20/04/21
14:48:04.00
Administrator
TE109A, Tuesday, April 21 2020, 038.
1000.000000
#HDR
-1
-1
#GR
cm-1
EGY
1.0
0.0
6000.000000
-2.000000
2501
8
105.421683
10.948928
#DATA
6000.000000	16.610746
5998.000000	16.641786
5996.000000	16.672197
5994.000000	16.705742
5992.000000	16.740048
5990.000000	16.773262
5988.000000	16.805806
5986.000000	16.837919
5984.000000	16.872088
5982.000000	16.905726
5980.000000	16.937078
5978.000000	16.969113
5976.000000	17.003652
5974.000000	17.040381
5972.000000	17.074519
5970.000000	17.107508
5968.000000	17.140278
5966.000000	17.174412
5964.000000	17.209076
5962.000000	17.242145
5960.000000	17.275701
5958.000000	17.310547
5956.000000	17.345607
5954.000000	17.380791
5952.000000	17.413331
5950.000000	17.446655
5948.000000	17.480404
5946.000000	17.514329
5944.000000	17.548002
5942.000000	17.581285
5940.000000	17.615622
5938.000000	17.650772
5936.000000	17.684609
5934.000000	17.720053
5932.000000	17.753715
5930.000000	17.787779
5928.000000	17.822069
5926.000000	17.856949
5924.000000	17.892503
5922.000000	17.926632
5920.000000	17.960397
5918.000000	17.995398
5916.000000	18.032620
5914.000000	18.070701
5912.000000	18.106726
5910.000000	18.141617
5908.000000	18.177551
5906.000000	18.215583
5904.000000	18.252603
5902.000000	18.288788
5900.000000	18.323812
5898.000000	18.360393
5896.000000	18.397277
5894.000000	18.433724
5892.000000	18.469475
5890.000000	18.504753
5888.000000	18.540739
5886.000000	18.577956
5884.000000	18.614844
5882.000000	18.651660
5880.000000	18.686735
5878.000000	18.723115
5876.000000	18.759925
5874.000000	18.796853
5872.000000	18.833741
5870.000000	18.870657
5868.000000	18.907351
5866.000000	18.943405
5864.000000	18.978894
5862.000000	19.015510
5860.000000	19.053758
5858.000000	19.091215
5856.000000	19.128361
5854.000000	19.165348
5852.000000	19.203347
5850.000000	19.242968
5848.000000	19.282869
5846.000000	19.323390
5844.000000	19.362847
5842.000000	19.404166
5840.000000	19.445538
5838.000000	19.487051
5836.000000	19.528973
5834.000000	19.570509
5832.000000	19.613031
5830.000000	19.654529
5828.000000	19.695141
5826.000000	19.737489
5824.000000	19.778415
5822.000000	19.819269
5820.000000	19.859317
5818.000000	19.899265
5816.000000	19.939517
5814.000000	19.979582
5812.000000	20.018601
5810.000000	20.059811
5808.000000	20.100739
5806.000000	20.142468
5804.000000	20.183415
5802.000000	20.224000
5800.000000	20.264728
5798.000000	20.306616
5796.000000	20.348418
5794.000000	20.390330
5792.000000	20.432084
5790.000000	20.473634
5788.000000	20.514549
5786.000000	20.555143
5784.000000	20.594395
5782.000000	20.634776
5780.000000	20.675198
5778.000000	20.716514
5776.000000	20.758437
5774.000000	20.801765
5772.000000	20.846014
5770.000000	20.887786
5768.000000	20.927457
5766.000000	20.968009
5764.000000	21.011370
5762.000000	21.055472
5760.000000	21.098223
5758.000000	21.138762
5756.000000	21.179007
5754.000000	21.220512
5752.000000	21.262196
5750.000000	21.304079
5748.000000	21.345563
5746.000000	21.387806
5744.000000	21.430067
5742.000000	21.472099
5740.000000	21.513954
5738.000000	21.555062
5736.000000	21.594703
5734.000000	21.634372
5732.000000	21.674880
5730.000000	21.715936
5728.000000	21.756051
5726.000000	21.795957
5724.000000	21.836392
5722.000000	21.878562
5720.000000	21.921848
5718.000000	21.965506
5716.000000	22.007921
5714.000000	22.052915
5712.000000	22.097849
5710.000000	22.140253
5708.000000	22.180953
5706.000000	22.223531
5704.000000	22.268468
5702.000000	22.314760
5700.000000	22.360735
5698.000000	22.407575
5696.000000	22.451073
5694.000000	22.494379
5692.000000	22.539140
5690.000000	22.585534
5688.000000	22.631249
5686.000000	22.676527
5684.000000	22.721506
5682.000000	22.766752
5680.000000	22.811783
5678.000000	22.857712
5676.000000	22.902701
5674.000000	22.947795
5672.000000	22.993652
5670.000000	23.039965
5668.000000	23.086439
5666.000000	23.132681
5664.000000	23.177464
5662.000000	23.222419
5660.000000	23.266200
5658.000000	23.311251
5656.000000	23.356280
5654.000000	23.402495
5652.000000	23.449434
5650.000000	23.495825
5648.000000	23.541858
5646.000000	23.588151
5644.000000	23.632962
5642.000000	23.677850
5640.000000	23.722018
5638.000000	23.767991
5636.000000	23.814539
5634.000000	23.860585
5632.000000	23.903771
5630.000000	23.946241
5628.000000	23.991403
5626.000000	24.039036
5624.000000	24.086345
5622.000000	24.132284
5620.000000	24.178303
5618.000000	24.224696
5616.000000	24.269925
5614.000000	24.314924
5612.000000	24.358977
5610.000000	24.403909
5608.000000	24.450024
5606.000000	24.496701
5604.000000	24.542407
5602.000000	24.587713
5600.000000	24.633470
5598.000000	24.680208
5596.000000	24.726572
5594.000000	24.773614
5592.000000	24.819443
5590.000000	24.865821
5588.000000	24.912211
5586.000000	24.959929
5584.000000	25.007384
5582.000000	25.054784
5580.000000	25.101621
5578.000000	25.149721
5576.000000	25.197733
5574.000000	25.247022
5572.000000	25.294960
5570.000000	25.340774
5568.000000	25.386215
5566.000000	25.433331
5564.000000	25.481851
5562.000000	25.530446
5560.000000	25.577466
5558.000000	25.625060
5556.000000	25.672754
5554.000000	25.721334
5552.000000	25.769618
5550.000000	25.817701
5548.000000	25.865025
5546.000000	25.913199
5544.000000	25.960648
5542.000000	26.007885
5540.000000	26.054248
5538.000000	26.100810
5536.000000	26.146861
5534.000000	26.195306
5532.000000	26.244265
5530.000000	26.293132
5528.000000	26.341481
5526.000000	26.389468
5524.000000	26.436195
5522.000000	26.482313
5520.000000	26.528778
5518.000000	26.576821
5516.000000	26.624282
5514.000000	26.673352
5512.000000	26.720899
5510.000000	26.766002
5508.000000	26.810838
5506.000000	26.860362
5504.000000	26.911612
5502.000000	26.960241
5500.000000	27.007171
5498.000000	27.053870
5496.000000	27.098200
5494.000000	27.142144
5492.000000	27.188294
5490.000000	27.240093
5488.000000	27.292858
5486.000000	27.346409
5484.000000	27.399264
5482.000000	27.449593
5480.000000	27.492601
5478.000000	27.531153
5476.000000	27.574867
5474.000000	27.628227
5472.000000	27.685222
5470.000000	27.737332
5468.000000	27.784862
5466.000000	27.831494
5464.000000	27.876344
5462.000000	27.923039
5460.000000	27.972891
5458.000000	28.027408
5456.000000	28.082170
5454.000000	28.132725
5452.000000	28.178847
5450.000000	28.221174
5448.000000	28.263369
5446.000000	28.309311
5444.000000	28.356975
5442.000000	28.408893
5440.000000	28.460677
5438.000000	28.509800
5436.000000	28.556520
5434.000000	28.603597
5432.000000	28.650033
5430.000000	28.697345
5428.000000	28.750534
5426.000000	28.812791
5424.000000	28.874296
5422.000000	28.929232
5420.000000	28.976880
5418.000000	29.015034
5416.000000	29.046146
5414.000000	29.081455
5412.000000	29.130082
5410.000000	29.191931
5408.000000	29.255866
5406.000000	29.314627
5404.000000	29.366834
5402.000000	29.416690
5400.000000	29.463544
5398.000000	29.503012
5396.000000	29.539428
5394.000000	29.586757
5392.000000	29.646780
5390.000000	29.706910
5388.000000	29.756308
5386.000000	29.804889
5384.000000	29.860052
5382.000000	29.915509
5380.000000	29.958015
5378.000000	29.996263
5376.000000	30.044220
5374.000000	30.106977
5372.000000	30.171217
5370.000000	30.228641
5368.000000	30.277783
5366.000000	30.324628
5364.000000	30.374172
5362.000000	30.428653
5360.000000	30.482714
5358.000000	30.527549
5356.000000	30.563497
5354.000000	30.605113
5352.000000	30.657427
5350.000000	30.712749
5348.000000	30.755297
5346.000000	30.796740
5344.000000	30.846217
5342.000000	30.897317
5340.000000	30.944547
5338.000000	30.995868
5336.000000	31.056715
5334.000000	31.117147
5332.000000	31.168662
5330.000000	31.216491
5328.000000	31.268396
5326.000000	31.326141
5324.000000	31.385909
5322.000000	31.442336
5320.000000	31.493402
5318.000000	31.541920
5316.000000	31.590299
5314.000000	31.642779
5312.000000	31.693844
5310.000000	31.739294
5308.000000	31.784397
5306.000000	31.836116
5304.000000	31.892014
5302.000000	31.945496
5300.000000	31.997059
5298.000000	32.051104
5296.000000	32.104787
5294.000000	32.151236
5292.000000	32.193432
5290.000000	32.240799
5288.000000	32.295766
5286.000000	32.353678
5284.000000	32.408900
5282.000000	32.463523
5280.000000	32.516977
5278.000000	32.571725
5276.000000	32.626355
5274.000000	32.679041
5272.000000	32.728610
5270.000000	32.776385
5268.000000	32.818984
5266.000000	32.859085
5264.000000	32.905802
5262.000000	32.966262
5260.000000	33.029552
5258.000000	33.082022
5256.000000	33.128480
5254.000000	33.179619
5252.000000	33.230103
5250.000000	33.276087
5248.000000	33.322595
5246.000000	33.377775
5244.000000	33.438897
5242.000000	33.500423
5240.000000	33.559418
5238.000000	33.613267
5236.000000	33.662587
5234.000000	33.710537
5232.000000	33.758887
5230.000000	33.807079
5228.000000	33.851899
5226.000000	33.901072
5224.000000	33.959020
5222.000000	34.020468
5220.000000	34.077222
5218.000000	34.131251
5216.000000	34.185980
5214.000000	34.239084
5212.000000	34.284671
5210.000000	34.321776
5208.000000	34.361394
5206.000000	34.417733
5204.000000	34.485264
5202.000000	34.549237
5200.000000	34.602180
5198.000000	34.653061
5196.000000	34.707154
5194.000000	34.764155
5192.000000	34.819445
5190.000000	34.872005
5188.000000	34.923105
5186.000000	34.975788
5184.000000	35.031242
5182.000000	35.089669
5180.000000	35.146561
5178.000000	35.201377
5176.000000	35.255755
5174.000000	35.311598
5172.000000	35.366602
5170.000000	35.420770
5168.000000	35.474275
5166.000000	35.528600
5164.000000	35.582589
5162.000000	35.637000
5160.000000	35.690989
5158.000000	35.744921
5156.000000	35.799874
5154.000000	35.855649
5152.000000	35.911293
5150.000000	35.966904
5148.000000	36.021714
5146.000000	36.076174
5144.000000	36.129564
5142.000000	36.183831
5140.000000	36.238248
5138.000000	36.293116
5136.000000	36.347227
5134.000000	36.400767
5132.000000	36.453612
5130.000000	36.508349
5128.000000	36.563507
5126.000000	36.618265
5124.000000	36.670994
5122.000000	36.723944
5120.000000	36.777529
5118.000000	36.832420
5116.000000	36.887565
5114.000000	36.942186
5112.000000	36.996132
5110.000000	37.052097
5108.000000	37.108076
5106.000000	37.163807
5104.000000	37.218459
5102.000000	37.274468
5100.000000	37.331533
5098.000000	37.388391
5096.000000	37.443239
5094.000000	37.497981
5092.000000	37.553809
5090.000000	37.610836
5088.000000	37.666839
5086.000000	37.723931
5084.000000	37.780649
5082.000000	37.837139
5080.000000	37.893257
5078.000000	37.950750
5076.000000	38.008881
5074.000000	38.066024
5072.000000	38.121633
5070.000000	38.176218
5068.000000	38.231633
5066.000000	38.289399
5064.000000	38.347405
5062.000000	38.404458
5060.000000	38.459673
5058.000000	38.516665
5056.000000	38.574092
5054.000000	38.630956
5052.000000	38.686053
5050.000000	38.740744
5048.000000	38.795334
5046.000000	38.852910
5044.000000	38.911241
5042.000000	38.967045
5040.000000	39.020503
5038.000000	39.076067
5036.000000	39.132387
5034.000000	39.188163
5032.000000	39.243674
5030.000000	39.300181
5028.000000	39.356101
5026.000000	39.411852
5024.000000	39.467733
5022.000000	39.523428
5020.000000	39.579520
5018.000000	39.637557
5016.000000	39.696135
5014.000000	39.753600
5012.000000	39.809491
5010.000000	39.865840
5008.000000	39.922438
5006.000000	39.979818
5004.000000	40.037351
5002.000000	40.095420
5000.000000	40.152596
4998.000000	40.209573
4996.000000	40.266970
4994.000000	40.326549
4992.000000	40.385137
4990.000000	40.443195
4988.000000	40.502347
4986.000000	40.562737
4984.000000	40.621987
4982.000000	40.678750
4980.000000	40.733997
4978.000000	40.791273
4976.000000	40.850520
4974.000000	40.910573
4972.000000	40.968023
4970.000000	41.023712
4968.000000	41.079412
4966.000000	41.138494
4964.000000	41.197903
4962.000000	41.254939
4960.000000	41.309954
4958.000000	41.367398
4956.000000	41.425707
4954.000000	41.484052
4952.000000	41.541461
4950.000000	41.599419
4948.000000	41.656813
4946.000000	41.714644
4944.000000	41.772477
4942.000000	41.828693
4940.000000	41.883192
4938.000000	41.939448
4936.000000	41.997990
4934.000000	42.056451
4932.000000	42.111606
4930.000000	42.165652
4928.000000	42.220988
4926.000000	42.279019
4924.000000	42.337741
4922.000000	42.396237
4920.000000	42.453466
4918.000000	42.510265
4916.000000	42.566431
4914.000000	42.622533
4912.000000	42.679314
4910.000000	42.737904
4908.000000	42.797243
4906.000000	42.857032
4904.000000	42.916629
4902.000000	42.976047
4900.000000	43.036361
4898.000000	43.096414
4896.000000	43.154351
4894.000000	43.212298
4892.000000	43.272825
4890.000000	43.334770
4888.000000	43.393440
4886.000000	43.450284
4884.000000	43.507502
4882.000000	43.566664
4880.000000	43.626440
4878.000000	43.687381
4876.000000	43.747216
4874.000000	43.805832
4872.000000	43.864151
4870.000000	43.923500
4868.000000	43.982160
4866.000000	44.041294
4864.000000	44.100014
4862.000000	44.158972
4860.000000	44.217199
4858.000000	44.275498
4856.000000	44.333536
4854.000000	44.391054
4852.000000	44.447118
4850.000000	44.504307
4848.000000	44.562965
4846.000000	44.621360
4844.000000	44.678312
4842.000000	44.736253
4840.000000	44.793684
4838.000000	44.851074
4836.000000	44.909011
4834.000000	44.968061
4832.000000	45.025482
4830.000000	45.083144
4828.000000	45.141064
4826.000000	45.199996
4824.000000	45.258957
4822.000000	45.318193
4820.000000	45.375286
4818.000000	45.431971
4816.000000	45.489772
4814.000000	45.549548
4812.000000	45.608761
4810.000000	45.668451
4808.000000	45.728960
4806.000000	45.790727
4804.000000	45.850549
4802.000000	45.908857
4800.000000	45.967188
4798.000000	46.026863
4796.000000	46.086279
4794.000000	46.146706
4792.000000	46.207968
4790.000000	46.270173
4788.000000	46.331519
4786.000000	46.392180
4784.000000	46.451106
4782.000000	46.511358
4780.000000	46.573092
4778.000000	46.635052
4776.000000	46.695226
4774.000000	46.755002
4772.000000	46.814681
4770.000000	46.874652
4768.000000	46.934018
4766.000000	46.993307
4764.000000	47.051466
4762.000000	47.109041
4760.000000	47.165792
4758.000000	47.225065
4756.000000	47.285385
4754.000000	47.345781
4752.000000	47.404906
4750.000000	47.464499
4748.000000	47.522054
4746.000000	47.578029
4744.000000	47.633939
4742.000000	47.692110
4740.000000	47.750630
4738.000000	47.809973
4736.000000	47.869624
4734.000000	47.929188
4732.000000	47.986135
4730.000000	48.043480
4728.000000	48.102533
4726.000000	48.162560
4724.000000	48.221792
4722.000000	48.281431
4720.000000	48.340845
4718.000000	48.401376
4716.000000	48.462537
4714.000000	48.524775
4712.000000	48.587996
4710.000000	48.652185
4708.000000	48.714833
4706.000000	48.777750
4704.000000	48.840483
4702.000000	48.903432
4700.000000	48.966196
4698.000000	49.029115
4696.000000	49.091229
4694.000000	49.153855
4692.000000	49.214767
4690.000000	49.274839
4688.000000	49.335338
4686.000000	49.397280
4684.000000	49.457861
4682.000000	49.518962
4680.000000	49.580388
4678.000000	49.642193
4676.000000	49.703411
4674.000000	49.765604
4672.000000	49.827200
4670.000000	49.889403
4668.000000	49.951747
4666.000000	50.014371
4664.000000	50.075762
4662.000000	50.136614
4660.000000	50.196162
4658.000000	50.256633
4656.000000	50.317594
4654.000000	50.379309
4652.000000	50.440407
4650.000000	50.501684
4648.000000	50.562185
4646.000000	50.623223
4644.000000	50.684148
4642.000000	50.744825
4640.000000	50.804511
4638.000000	50.865444
4636.000000	50.926722
4634.000000	50.988796
4632.000000	51.050788
4630.000000	51.112517
4628.000000	51.172142
4626.000000	51.232838
4624.000000	51.295075
4622.000000	51.357950
4620.000000	51.420130
4618.000000	51.482423
4616.000000	51.544020
4614.000000	51.607787
4612.000000	51.674829
4610.000000	51.742082
4608.000000	51.805181
4606.000000	51.867520
4604.000000	51.931323
4602.000000	51.996288
4600.000000	52.061045
4598.000000	52.126199
4596.000000	52.190898
4594.000000	52.257189
4592.000000	52.323373
4590.000000	52.387702
4588.000000	52.451794
4586.000000	52.517885
4584.000000	52.582120
4582.000000	52.644312
4580.000000	52.705931
4578.000000	52.769305
4576.000000	52.833527
4574.000000	52.898104
4572.000000	52.961694
4570.000000	53.027346
4568.000000	53.094167
4566.000000	53.159533
4564.000000	53.221123
4562.000000	53.282921
4560.000000	53.346576
4558.000000	53.411494
4556.000000	53.474762
4554.000000	53.536665
4552.000000	53.597322
4550.000000	53.659713
4548.000000	53.723704
4546.000000	53.786224
4544.000000	53.845873
4542.000000	53.907487
4540.000000	53.970953
4538.000000	54.034161
4536.000000	54.097008
4534.000000	54.160745
4532.000000	54.223291
4530.000000	54.286378
4528.000000	54.350447
4526.000000	54.415254
4524.000000	54.479032
4522.000000	54.543125
4520.000000	54.606809
4518.000000	54.671859
4516.000000	54.738015
4514.000000	54.803450
4512.000000	54.865065
4510.000000	54.928877
4508.000000	54.995915
4506.000000	55.061794
4504.000000	55.126276
4502.000000	55.193645
4500.000000	55.259713
4498.000000	55.324132
4496.000000	55.389632
4494.000000	55.456410
4492.000000	55.521553
4490.000000	55.586453
4488.000000	55.651372
4486.000000	55.716873
4484.000000	55.782192
4482.000000	55.847003
4480.000000	55.910404
4478.000000	55.975181
4476.000000	56.040481
4474.000000	56.104032
4472.000000	56.165819
4470.000000	56.228481
4468.000000	56.289926
4466.000000	56.351876
4464.000000	56.415751
4462.000000	56.479911
4460.000000	56.541117
4458.000000	56.602581
4456.000000	56.665325
4454.000000	56.728386
4452.000000	56.789352
4450.000000	56.851098
4448.000000	56.914738
4446.000000	56.978584
4444.000000	57.040136
4442.000000	57.102469
4440.000000	57.165714
4438.000000	57.228110
4436.000000	57.289955
4434.000000	57.353950
4432.000000	57.416698
4430.000000	57.478737
4428.000000	57.543027
4426.000000	57.609405
4424.000000	57.673820
4422.000000	57.736517
4420.000000	57.798120
4418.000000	57.860700
4416.000000	57.923832
4414.000000	57.988433
4412.000000	58.054215
4410.000000	58.120044
4408.000000	58.185344
4406.000000	58.251622
4404.000000	58.316995
4402.000000	58.380927
4400.000000	58.444596
4398.000000	58.508618
4396.000000	58.571689
4394.000000	58.635223
4392.000000	58.698429
4390.000000	58.760203
4388.000000	58.821934
4386.000000	58.885394
4384.000000	58.948092
4382.000000	59.010299
4380.000000	59.070598
4378.000000	59.129683
4376.000000	59.189008
4374.000000	59.249521
4372.000000	59.309890
4370.000000	59.370874
4368.000000	59.431795
4366.000000	59.493573
4364.000000	59.554246
4362.000000	59.613919
4360.000000	59.674196
4358.000000	59.736377
4356.000000	59.798903
4354.000000	59.862277
4352.000000	59.925230
4350.000000	59.989108
4348.000000	60.053105
4346.000000	60.116709
4344.000000	60.180396
4342.000000	60.244636
4340.000000	60.307210
4338.000000	60.370082
4336.000000	60.433744
4334.000000	60.497404
4332.000000	60.560195
4330.000000	60.624726
4328.000000	60.690767
4326.000000	60.755771
4324.000000	60.819303
4322.000000	60.884993
4320.000000	60.952368
4318.000000	61.020207
4316.000000	61.087936
4314.000000	61.157650
4312.000000	61.226868
4310.000000	61.293708
4308.000000	61.359326
4306.000000	61.426107
4304.000000	61.491804
4302.000000	61.557395
4300.000000	61.623773
4298.000000	61.691268
4296.000000	61.757454
4294.000000	61.822088
4292.000000	61.885561
