PE IR       SUBTECH     SPECTRUM    ASCII       PEDS        4.00        
   -1
TE109A_073_80K_after_140K_SB.ASC
20/04/21
20:30:28.00
20/04/21
20:30:28.00
Administrator
TE109A, Tuesday, April 21 2020, 073.
1000.000000
#HDR
-1
-1
#GR
cm-1
EGY
1.0
0.0
6000.000000
-2.000000
2501
8
11.441529
1.203685
#DATA
6000.000000	1.985672
5998.000000	1.991032
5996.000000	1.995966
5994.000000	2.000235
5992.000000	2.004490
5990.000000	2.007908
5988.000000	2.010934
5986.000000	2.014677
5984.000000	2.019490
5982.000000	2.024161
5980.000000	2.026981
5978.000000	2.029517
5976.000000	2.032826
5974.000000	2.036786
5972.000000	2.039989
5970.000000	2.044199
5968.000000	2.049126
5966.000000	2.053385
5964.000000	2.057107
5962.000000	2.060827
5960.000000	2.065303
5958.000000	2.070373
5956.000000	2.076297
5954.000000	2.081404
5952.000000	2.085849
5950.000000	2.088101
5948.000000	2.090552
5946.000000	2.095217
5944.000000	2.099289
5942.000000	2.104149
5940.000000	2.109925
5938.000000	2.116079
5936.000000	2.120883
5934.000000	2.123390
5932.000000	2.125208
5930.000000	2.128574
5928.000000	2.133264
5926.000000	2.137461
5924.000000	2.142539
5922.000000	2.147304
5920.000000	2.151143
5918.000000	2.154621
5916.000000	2.159180
5914.000000	2.164280
5912.000000	2.169278
5910.000000	2.173566
5908.000000	2.177738
5906.000000	2.183514
5904.000000	2.188373
5902.000000	2.191815
5900.000000	2.194752
5898.000000	2.198771
5896.000000	2.203417
5894.000000	2.207756
5892.000000	2.210518
5890.000000	2.215277
5888.000000	2.221188
5886.000000	2.227160
5884.000000	2.232023
5882.000000	2.235874
5880.000000	2.239600
5878.000000	2.243101
5876.000000	2.246549
5874.000000	2.250257
5872.000000	2.254368
5870.000000	2.258474
5868.000000	2.262773
5866.000000	2.267248
5864.000000	2.272221
5862.000000	2.277524
5860.000000	2.282222
5858.000000	2.286168
5856.000000	2.290687
5854.000000	2.295245
5852.000000	2.299435
5850.000000	2.304652
5848.000000	2.308938
5846.000000	2.315245
5844.000000	2.321549
5842.000000	2.327128
5840.000000	2.330917
5838.000000	2.333719
5836.000000	2.338648
5834.000000	2.344978
5832.000000	2.350825
5830.000000	2.355120
5828.000000	2.358831
5826.000000	2.362851
5824.000000	2.368532
5822.000000	2.374630
5820.000000	2.379786
5818.000000	2.385295
5816.000000	2.390657
5814.000000	2.396366
5812.000000	2.401161
5810.000000	2.405134
5808.000000	2.410394
5806.000000	2.414500
5804.000000	2.417897
5802.000000	2.422744
5800.000000	2.426950
5798.000000	2.431026
5796.000000	2.434125
5794.000000	2.438031
5792.000000	2.443283
5790.000000	2.449038
5788.000000	2.454926
5786.000000	2.459760
5784.000000	2.462995
5782.000000	2.467380
5780.000000	2.473180
5778.000000	2.480190
5776.000000	2.486087
5774.000000	2.491331
5772.000000	2.496162
5770.000000	2.500644
5768.000000	2.506597
5766.000000	2.512472
5764.000000	2.518006
5762.000000	2.523042
5760.000000	2.527893
5758.000000	2.531874
5756.000000	2.535282
5754.000000	2.540521
5752.000000	2.547555
5750.000000	2.553634
5748.000000	2.557758
5746.000000	2.562034
5744.000000	2.567826
5742.000000	2.573134
5740.000000	2.576647
5738.000000	2.580166
5736.000000	2.584773
5734.000000	2.590042
5732.000000	2.595305
5730.000000	2.599917
5728.000000	2.605343
5726.000000	2.610743
5724.000000	2.616942
5722.000000	2.623291
5720.000000	2.626423
5718.000000	2.629247
5716.000000	2.633331
5714.000000	2.640393
5712.000000	2.647816
5710.000000	2.653345
5708.000000	2.658320
5706.000000	2.662532
5704.000000	2.666350
5702.000000	2.670468
5700.000000	2.675841
5698.000000	2.682685
5696.000000	2.689386
5694.000000	2.693688
5692.000000	2.696914
5690.000000	2.700816
5688.000000	2.707229
5686.000000	2.713779
5684.000000	2.719153
5682.000000	2.724391
5680.000000	2.729988
5678.000000	2.734851
5676.000000	2.739555
5674.000000	2.745402
5672.000000	2.752143
5670.000000	2.758922
5668.000000	2.765050
5666.000000	2.769981
5664.000000	2.774800
5662.000000	2.779164
5660.000000	2.784555
5658.000000	2.790073
5656.000000	2.795398
5654.000000	2.800781
5652.000000	2.805574
5650.000000	2.811719
5648.000000	2.818252
5646.000000	2.825512
5644.000000	2.830766
5642.000000	2.835120
5640.000000	2.840653
5638.000000	2.846785
5636.000000	2.853293
5634.000000	2.858529
5632.000000	2.862884
5630.000000	2.866736
5628.000000	2.870327
5626.000000	2.875488
5624.000000	2.882325
5622.000000	2.888068
5620.000000	2.892007
5618.000000	2.897063
5616.000000	2.904913
5614.000000	2.913774
5612.000000	2.919980
5610.000000	2.923985
5608.000000	2.927655
5606.000000	2.931091
5604.000000	2.935847
5602.000000	2.940771
5600.000000	2.946260
5598.000000	2.951430
5596.000000	2.956977
5594.000000	2.963800
5592.000000	2.970480
5590.000000	2.976731
5588.000000	2.981091
5586.000000	2.985535
5584.000000	2.990963
5582.000000	2.997367
5580.000000	3.002365
5578.000000	3.007624
5576.000000	3.013577
5574.000000	3.019981
5572.000000	3.026126
5570.000000	3.031865
5568.000000	3.038505
5566.000000	3.043677
5564.000000	3.047622
5562.000000	3.051663
5560.000000	3.057899
5558.000000	3.066005
5556.000000	3.073142
5554.000000	3.078838
5552.000000	3.083400
5550.000000	3.088176
5548.000000	3.093936
5546.000000	3.100074
5544.000000	3.106098
5542.000000	3.112006
5540.000000	3.117714
5538.000000	3.124163
5536.000000	3.128758
5534.000000	3.132098
5532.000000	3.136818
5530.000000	3.144682
5528.000000	3.154042
5526.000000	3.160318
5524.000000	3.164473
5522.000000	3.169195
5520.000000	3.175138
5518.000000	3.180733
5516.000000	3.185005
5514.000000	3.189735
5512.000000	3.195059
5510.000000	3.201582
5508.000000	3.208352
5506.000000	3.213956
5504.000000	3.219675
5502.000000	3.226139
5500.000000	3.232232
5498.000000	3.237107
5496.000000	3.241553
5494.000000	3.247095
5492.000000	3.253245
5490.000000	3.259225
5488.000000	3.264667
5486.000000	3.270571
5484.000000	3.278143
5482.000000	3.285187
5480.000000	3.289317
5478.000000	3.292120
5476.000000	3.297352
5474.000000	3.305350
5472.000000	3.312690
5470.000000	3.318503
5468.000000	3.322863
5466.000000	3.326925
5464.000000	3.332681
5462.000000	3.340947
5460.000000	3.349072
5458.000000	3.355422
5456.000000	3.360248
5454.000000	3.365128
5452.000000	3.370666
5450.000000	3.376229
5448.000000	3.380841
5446.000000	3.386375
5444.000000	3.393245
5442.000000	3.400850
5440.000000	3.406569
5438.000000	3.410645
5436.000000	3.415421
5434.000000	3.422391
5432.000000	3.429164
5430.000000	3.434957
5428.000000	3.441254
5426.000000	3.447784
5424.000000	3.453570
5422.000000	3.457616
5420.000000	3.463114
5418.000000	3.470076
5416.000000	3.476383
5414.000000	3.482407
5412.000000	3.488223
5410.000000	3.495079
5408.000000	3.502004
5406.000000	3.508321
5404.000000	3.513526
5402.000000	3.519183
5400.000000	3.524658
5398.000000	3.528022
5396.000000	3.529938
5394.000000	3.535289
5392.000000	3.544702
5390.000000	3.553095
5388.000000	3.558413
5386.000000	3.563574
5384.000000	3.570183
5382.000000	3.576014
5380.000000	3.580476
5378.000000	3.585945
5376.000000	3.592370
5374.000000	3.598990
5372.000000	3.605936
5370.000000	3.614192
5368.000000	3.621491
5366.000000	3.625952
5364.000000	3.629513
5362.000000	3.636743
5360.000000	3.646103
5358.000000	3.654109
5356.000000	3.659764
5354.000000	3.665179
5352.000000	3.670918
5350.000000	3.676081
5348.000000	3.681088
5346.000000	3.685833
5344.000000	3.691843
5342.000000	3.697485
5340.000000	3.703131
5338.000000	3.709092
5336.000000	3.715654
5334.000000	3.722548
5332.000000	3.728160
5330.000000	3.734198
5328.000000	3.739779
5326.000000	3.745585
5324.000000	3.751509
5322.000000	3.758638
5320.000000	3.766014
5318.000000	3.772167
5316.000000	3.776606
5314.000000	3.782070
5312.000000	3.789260
5310.000000	3.795640
5308.000000	3.800786
5306.000000	3.805558
5304.000000	3.810522
5302.000000	3.815229
5300.000000	3.821195
5298.000000	3.828444
5296.000000	3.835863
5294.000000	3.841330
5292.000000	3.846521
5290.000000	3.851622
5288.000000	3.857271
5286.000000	3.863391
5284.000000	3.869986
5282.000000	3.877488
5280.000000	3.884403
5278.000000	3.889569
5276.000000	3.892935
5274.000000	3.896757
5272.000000	3.903275
5270.000000	3.911582
5268.000000	3.918188
5266.000000	3.922935
5264.000000	3.928981
5262.000000	3.936800
5260.000000	3.942829
5258.000000	3.945501
5256.000000	3.949179
5254.000000	3.955349
5252.000000	3.961831
5250.000000	3.966390
5248.000000	3.971817
5246.000000	3.979226
5244.000000	3.987256
5242.000000	3.992688
5240.000000	3.996249
5238.000000	4.000741
5236.000000	4.006936
5234.000000	4.013279
5232.000000	4.018013
5230.000000	4.021144
5228.000000	4.024932
5226.000000	4.031391
5224.000000	4.038875
5222.000000	4.045229
5220.000000	4.049995
5218.000000	4.055154
5216.000000	4.061429
5214.000000	4.067436
5212.000000	4.071273
5210.000000	4.073174
5208.000000	4.075971
5206.000000	4.082272
5204.000000	4.090519
5202.000000	4.097404
5200.000000	4.102512
5198.000000	4.108044
5196.000000	4.116203
5194.000000	4.124708
5192.000000	4.130772
5190.000000	4.135106
5188.000000	4.138769
5186.000000	4.143713
5184.000000	4.149418
5182.000000	4.155265
5180.000000	4.161161
5178.000000	4.165911
5176.000000	4.170515
5174.000000	4.175753
5172.000000	4.182608
5170.000000	4.189517
5168.000000	4.193923
5166.000000	4.196728
5164.000000	4.200792
5162.000000	4.207273
5160.000000	4.214433
5158.000000	4.220182
5156.000000	4.226146
5154.000000	4.232915
5152.000000	4.239512
5150.000000	4.244771
5148.000000	4.248682
5146.000000	4.254087
5144.000000	4.260383
5142.000000	4.265905
5140.000000	4.268657
5138.000000	4.271527
5136.000000	4.276332
5134.000000	4.282758
5132.000000	4.290351
5130.000000	4.298133
5128.000000	4.303060
5126.000000	4.305330
5124.000000	4.308609
5122.000000	4.313890
5120.000000	4.319701
5118.000000	4.325182
5116.000000	4.331367
5114.000000	4.338071
5112.000000	4.343942
5110.000000	4.348880
5108.000000	4.353619
5106.000000	4.360015
5104.000000	4.367425
5102.000000	4.373772
5100.000000	4.378935
5098.000000	4.383259
5096.000000	4.387420
5094.000000	4.393170
5092.000000	4.400619
5090.000000	4.408381
5088.000000	4.414965
5086.000000	4.420270
5084.000000	4.423830
5082.000000	4.428473
5080.000000	4.436646
5078.000000	4.446202
5076.000000	4.453255
5074.000000	4.458022
5072.000000	4.462438
5070.000000	4.467672
5068.000000	4.473865
5066.000000	4.480458
5064.000000	4.486197
5062.000000	4.491784
5060.000000	4.498331
5058.000000	4.505510
5056.000000	4.511600
5054.000000	4.517888
5052.000000	4.524867
5050.000000	4.530776
5048.000000	4.534552
5046.000000	4.538993
5044.000000	4.545264
5042.000000	4.552237
5040.000000	4.558335
5038.000000	4.563960
5036.000000	4.570946
5034.000000	4.577718
5032.000000	4.583135
5030.000000	4.587098
5028.000000	4.591329
5026.000000	4.598610
5024.000000	4.607166
5022.000000	4.614457
5020.000000	4.619635
5018.000000	4.626105
5016.000000	4.632876
5014.000000	4.638983
5012.000000	4.645801
5010.000000	4.652974
5008.000000	4.659011
5006.000000	4.665358
5004.000000	4.671445
5002.000000	4.676685
5000.000000	4.681825
4998.000000	4.689468
4996.000000	4.699127
4994.000000	4.707696
4992.000000	4.713180
4990.000000	4.716677
4988.000000	4.721153
4986.000000	4.727220
4984.000000	4.733304
4982.000000	4.741342
4980.000000	4.750374
4978.000000	4.758487
4976.000000	4.764589
4974.000000	4.771504
4972.000000	4.779232
4970.000000	4.786613
4968.000000	4.793222
4966.000000	4.800165
4964.000000	4.807543
4962.000000	4.814927
4960.000000	4.821109
4958.000000	4.827407
4956.000000	4.834002
4954.000000	4.841241
4952.000000	4.847179
4950.000000	4.851961
4948.000000	4.856896
4946.000000	4.864946
4944.000000	4.874165
4942.000000	4.881146
4940.000000	4.885474
4938.000000	4.889864
4936.000000	4.896483
4934.000000	4.905495
4932.000000	4.914157
4930.000000	4.920768
4928.000000	4.927408
4926.000000	4.936074
4924.000000	4.943934
4922.000000	4.949458
4920.000000	4.954753
4918.000000	4.961433
4916.000000	4.967656
4914.000000	4.973785
4912.000000	4.980081
4910.000000	4.987418
4908.000000	4.995574
4906.000000	5.004740
4904.000000	5.011832
4902.000000	5.017637
4900.000000	5.023695
4898.000000	5.030525
4896.000000	5.037816
4894.000000	5.046499
4892.000000	5.055820
4890.000000	5.065226
4888.000000	5.074203
4886.000000	5.081588
4884.000000	5.086985
4882.000000	5.092958
4880.000000	5.100495
4878.000000	5.108766
4876.000000	5.116840
4874.000000	5.125232
4872.000000	5.132218
4870.000000	5.138339
4868.000000	5.146047
4866.000000	5.155716
4864.000000	5.163622
4862.000000	5.169044
4860.000000	5.174433
4858.000000	5.181429
4856.000000	5.190719
4854.000000	5.199637
4852.000000	5.207170
4850.000000	5.212942
4848.000000	5.218160
4846.000000	5.224465
4844.000000	5.232681
4842.000000	5.241580
4840.000000	5.249630
4838.000000	5.257494
4836.000000	5.265417
4834.000000	5.273938
4832.000000	5.281710
4830.000000	5.289007
4828.000000	5.296948
4826.000000	5.305036
4824.000000	5.312723
4822.000000	5.320873
4820.000000	5.328635
4818.000000	5.335061
4816.000000	5.342676
4814.000000	5.351958
4812.000000	5.359983
4810.000000	5.366407
4808.000000	5.374408
4806.000000	5.384374
4804.000000	5.393683
4802.000000	5.400975
4800.000000	5.408171
4798.000000	5.416598
4796.000000	5.426032
4794.000000	5.433900
4792.000000	5.441232
4790.000000	5.450805
4788.000000	5.462342
4786.000000	5.472903
4784.000000	5.481512
4782.000000	5.488758
4780.000000	5.496501
4778.000000	5.505561
4776.000000	5.514170
4774.000000	5.522439
4772.000000	5.531174
4770.000000	5.541267
4768.000000	5.550159
4766.000000	5.557681
4764.000000	5.564350
4762.000000	5.572482
4760.000000	5.580499
4758.000000	5.587807
4756.000000	5.595439
4754.000000	5.604670
4752.000000	5.614300
4750.000000	5.623187
4748.000000	5.631229
4746.000000	5.638994
4744.000000	5.646817
4742.000000	5.655514
4740.000000	5.665058
4738.000000	5.673953
4736.000000	5.681444
4734.000000	5.688387
4732.000000	5.695763
4730.000000	5.704588
4728.000000	5.714624
4726.000000	5.724756
4724.000000	5.733468
4722.000000	5.740446
4720.000000	5.747306
4718.000000	5.755358
4716.000000	5.764987
4714.000000	5.775281
4712.000000	5.785013
4710.000000	5.793215
4708.000000	5.801180
4706.000000	5.809059
4704.000000	5.817184
4702.000000	5.826466
4700.000000	5.835984
4698.000000	5.844085
4696.000000	5.852028
4694.000000	5.860917
4692.000000	5.870059
4690.000000	5.878712
4688.000000	5.886503
4686.000000	5.894500
4684.000000	5.903784
4682.000000	5.913592
4680.000000	5.922861
4678.000000	5.932092
4676.000000	5.940937
4674.000000	5.948329
4672.000000	5.955395
4670.000000	5.964112
4668.000000	5.972974
4666.000000	5.981039
4664.000000	5.988807
4662.000000	5.997036
4660.000000	6.004428
4658.000000	6.011299
4656.000000	6.018077
4654.000000	6.025645
4652.000000	6.034195
4650.000000	6.044198
4648.000000	6.053649
4646.000000	6.060707
4644.000000	6.067608
4642.000000	6.075726
4640.000000	6.083688
4638.000000	6.091643
4636.000000	6.100735
4634.000000	6.109503
4632.000000	6.116907
4630.000000	6.125173
4628.000000	6.134608
4626.000000	6.142717
4624.000000	6.148635
4622.000000	6.155719
4620.000000	6.164068
4618.000000	6.172652
4616.000000	6.181197
4614.000000	6.189836
4612.000000	6.198140
4610.000000	6.205778
4608.000000	6.213480
4606.000000	6.222041
4604.000000	6.231910
4602.000000	6.241824
4600.000000	6.250779
4598.000000	6.257776
4596.000000	6.264776
4594.000000	6.272907
4592.000000	6.281356
4590.000000	6.290465
4588.000000	6.300065
4586.000000	6.309444
4584.000000	6.317589
4582.000000	6.324553
4580.000000	6.331005
4578.000000	6.339234
4576.000000	6.348539
4574.000000	6.357525
4572.000000	6.365249
4570.000000	6.372481
4568.000000	6.380429
4566.000000	6.388771
4564.000000	6.396641
4562.000000	6.404869
4560.000000	6.413786
4558.000000	6.422742
4556.000000	6.431325
4554.000000	6.439374
4552.000000	6.446232
4550.000000	6.452269
4548.000000	6.458252
4546.000000	6.465158
4544.000000	6.472726
4542.000000	6.481478
4540.000000	6.490844
4538.000000	6.499394
4536.000000	6.506682
4534.000000	6.515028
4532.000000	6.524880
4530.000000	6.534233
4528.000000	6.540492
4526.000000	6.545798
4524.000000	6.554199
4522.000000	6.565036
4520.000000	6.574439
4518.000000	6.582170
4516.000000	6.589064
4514.000000	6.596227
4512.000000	6.603609
4510.000000	6.611986
4508.000000	6.621559
4506.000000	6.630801
4504.000000	6.638109
4502.000000	6.645495
4500.000000	6.653388
4498.000000	6.661365
4496.000000	6.669647
4494.000000	6.678529
4492.000000	6.687516
4490.000000	6.696759
4488.000000	6.705808
4486.000000	6.714278
4484.000000	6.722038
4482.000000	6.730478
4480.000000	6.739641
4478.000000	6.748344
4476.000000	6.755754
4474.000000	6.762637
4472.000000	6.770433
4470.000000	6.779353
4468.000000	6.787830
4466.000000	6.796095
4464.000000	6.804226
4462.000000	6.810679
4460.000000	6.816110
4458.000000	6.821730
4456.000000	6.828338
4454.000000	6.836318
4452.000000	6.845043
4450.000000	6.854091
4448.000000	6.862984
4446.000000	6.870892
4444.000000	6.878311
4442.000000	6.885885
4440.000000	6.893531
4438.000000	6.900801
4436.000000	6.906816
4434.000000	6.912590
4432.000000	6.920394
4430.000000	6.929714
4428.000000	6.938853
4426.000000	6.946587
4424.000000	6.953326
4422.000000	6.960073
4420.000000	6.968699
4418.000000	6.977520
4416.000000	6.984788
4414.000000	6.991653
4412.000000	7.000001
4410.000000	7.009170
4408.000000	7.018499
4406.000000	7.026848
4404.000000	7.033365
4402.000000	7.039206
4400.000000	7.046763
4398.000000	7.056293
4396.000000	7.064607
4394.000000	7.071065
4392.000000	7.078518
4390.000000	7.087592
4388.000000	7.096269
4386.000000	7.103563
4384.000000	7.109818
4382.000000	7.116153
4380.000000	7.123350
4378.000000	7.131524
4376.000000	7.140140
4374.000000	7.147459
4372.000000	7.153012
4370.000000	7.158139
4368.000000	7.163641
4366.000000	7.170243
4364.000000	7.177765
4362.000000	7.185428
4360.000000	7.193430
4358.000000	7.200633
4356.000000	7.206104
4354.000000	7.212758
4352.000000	7.221239
4350.000000	7.229111
4348.000000	7.234985
4346.000000	7.241314
4344.000000	7.249373
4342.000000	7.257077
4340.000000	7.264530
4338.000000	7.273158
4336.000000	7.281174
4334.000000	7.288570
4332.000000	7.295363
4330.000000	7.300790
4328.000000	7.307104
4326.000000	7.316338
4324.000000	7.325687
4322.000000	7.333067
4320.000000	7.339613
4318.000000	7.347223
4316.000000	7.354572
4314.000000	7.360642
4312.000000	7.367236
4310.000000	7.375059
4308.000000	7.383372
4306.000000	7.392765
4304.000000	7.402045
4302.000000	7.410641
4300.000000	7.418647
4298.000000	7.425620
4296.000000	7.432107
4294.000000	7.438901
4292.000000	7.447154
4290.000000	7.455852
4288.000000	7.463109
4286.000000	7.470913
4284.000000	7.478551
4282.000000	7.483609
4280.000000	7.489297
4278.000000	7.496447
4276.000000	7.502699
4274.000000	7.508508
4272.000000	7.515138
4270.000000	7.522925
4268.000000	7.529757
4266.000000	7.534135
4264.000000	7.539840
4262.000000	7.548510
4260.000000	7.556427
4258.000000	7.563574
4256.000000	7.570966
4254.000000	7.577836
4252.000000	7.585588
4250.000000	7.595570
4248.000000	7.604426
4246.000000	7.611052
4244.000000	7.617054
4242.000000	7.623699
4240.000000	7.631438
4238.000000	7.639720
4236.000000	7.647146
4234.000000	7.654111
4232.000000	7.660587
4230.000000	7.667418
4228.000000	7.675122
4226.000000	7.682144
4224.000000	7.689421
4222.000000	7.698692
4220.000000	7.706664
4218.000000	7.713654
4216.000000	7.722520
4214.000000	7.731241
