PE IR       SUBTECH     SPECTRUM    ASCII       PEDS        4.00        
   -1
TE109A_072_80K_after_140K_BG.ASC
20/04/21
20:29:35.00
20/04/21
20:29:35.00
Administrator
TE109A, Tuesday, April 21 2020, 072.
1000.000000
#HDR
-1
-1
#GR
cm-1
EGY
1.0
0.0
6000.000000
-2.000000
2501
8
105.421832
10.936083
#DATA
6000.000000	16.389859
5998.000000	16.423772
5996.000000	16.457218
5994.000000	16.489423
5992.000000	16.521422
5990.000000	16.554871
5988.000000	16.587938
5986.000000	16.619904
5984.000000	16.650508
5982.000000	16.682321
5980.000000	16.714341
5978.000000	16.748623
5976.000000	16.784123
5974.000000	16.818710
5972.000000	16.852963
5970.000000	16.886194
5968.000000	16.920200
5966.000000	16.953545
5964.000000	16.986442
5962.000000	17.020394
5960.000000	17.055829
5958.000000	17.091434
5956.000000	17.125417
5954.000000	17.159505
5952.000000	17.193900
5950.000000	17.226977
5948.000000	17.259590
5946.000000	17.292566
5944.000000	17.326342
5942.000000	17.362576
5940.000000	17.397308
5938.000000	17.430890
5936.000000	17.463051
5934.000000	17.496450
5932.000000	17.531511
5930.000000	17.566500
5928.000000	17.600207
5926.000000	17.634666
5924.000000	17.669993
5922.000000	17.704418
5920.000000	17.737961
5918.000000	17.771702
5916.000000	17.806640
5914.000000	17.842848
5912.000000	17.879430
5910.000000	17.916011
5908.000000	17.953175
5906.000000	17.990193
5904.000000	18.028061
5902.000000	18.064441
5900.000000	18.100555
5898.000000	18.138084
5896.000000	18.175223
5894.000000	18.211433
5892.000000	18.247600
5890.000000	18.283999
5888.000000	18.320267
5886.000000	18.355245
5884.000000	18.389020
5882.000000	18.423902
5880.000000	18.459073
5878.000000	18.496084
5876.000000	18.533934
5874.000000	18.571196
5872.000000	18.607707
5870.000000	18.643438
5868.000000	18.679350
5866.000000	18.716775
5864.000000	18.754279
5862.000000	18.791956
5860.000000	18.828958
5858.000000	18.865927
5856.000000	18.904026
5854.000000	18.941788
5852.000000	18.981036
5850.000000	19.021432
5848.000000	19.060264
5846.000000	19.098231
5844.000000	19.137656
5842.000000	19.180473
5840.000000	19.222796
5838.000000	19.262319
5836.000000	19.300773
5834.000000	19.341629
5832.000000	19.383894
5830.000000	19.425607
5828.000000	19.467301
5826.000000	19.510027
5824.000000	19.552651
5822.000000	19.594033
5820.000000	19.634083
5818.000000	19.673532
5816.000000	19.714038
5814.000000	19.755654
5812.000000	19.797110
5810.000000	19.837225
5808.000000	19.876599
5806.000000	19.917040
5804.000000	19.958223
5802.000000	19.999169
5800.000000	20.039410
5798.000000	20.080281
5796.000000	20.121827
5794.000000	20.162631
5792.000000	20.201974
5790.000000	20.241783
5788.000000	20.282947
5786.000000	20.325629
5784.000000	20.366934
5782.000000	20.407148
5780.000000	20.448408
5778.000000	20.489865
5776.000000	20.532210
5774.000000	20.574998
5772.000000	20.618722
5770.000000	20.661071
5768.000000	20.701551
5766.000000	20.742801
5764.000000	20.785268
5762.000000	20.828010
5760.000000	20.868936
5758.000000	20.909840
5756.000000	20.952363
5754.000000	20.995205
5752.000000	21.035877
5750.000000	21.075477
5748.000000	21.117589
5746.000000	21.161594
5744.000000	21.204509
5742.000000	21.246156
5740.000000	21.286825
5738.000000	21.327160
5736.000000	21.366671
5734.000000	21.406496
5732.000000	21.448107
5730.000000	21.488748
5728.000000	21.528349
5726.000000	21.569353
5724.000000	21.611370
5722.000000	21.653712
5720.000000	21.694937
5718.000000	21.736791
5716.000000	21.780181
5714.000000	21.824925
5712.000000	21.868527
5710.000000	21.911013
5708.000000	21.953772
5706.000000	21.996917
5704.000000	22.040686
5702.000000	22.085251
5700.000000	22.131789
5698.000000	22.177573
5696.000000	22.220419
5694.000000	22.263160
5692.000000	22.307752
5690.000000	22.353534
5688.000000	22.398993
5686.000000	22.445116
5684.000000	22.491470
5682.000000	22.537049
5680.000000	22.581216
5678.000000	22.626149
5676.000000	22.671956
5674.000000	22.717469
5672.000000	22.761700
5670.000000	22.805586
5668.000000	22.851315
5666.000000	22.898374
5664.000000	22.945998
5662.000000	22.992643
5660.000000	23.038689
5658.000000	23.084438
5656.000000	23.130390
5654.000000	23.176212
5652.000000	23.220688
5650.000000	23.264160
5648.000000	23.309603
5646.000000	23.356544
5644.000000	23.402017
5642.000000	23.445033
5640.000000	23.488202
5638.000000	23.534159
5636.000000	23.580644
5634.000000	23.626244
5632.000000	23.672251
5630.000000	23.719254
5628.000000	23.765287
5626.000000	23.808650
5624.000000	23.853278
5622.000000	23.900113
5620.000000	23.946256
5618.000000	23.990207
5616.000000	24.033670
5614.000000	24.081249
5612.000000	24.128938
5610.000000	24.175721
5608.000000	24.220133
5606.000000	24.264359
5604.000000	24.308928
5602.000000	24.354302
5600.000000	24.400337
5598.000000	24.446553
5596.000000	24.492321
5594.000000	24.538866
5592.000000	24.586006
5590.000000	24.633002
5588.000000	24.678328
5586.000000	24.723903
5584.000000	24.770961
5582.000000	24.819319
5580.000000	24.866439
5578.000000	24.913063
5576.000000	24.960654
5574.000000	25.008869
5572.000000	25.056969
5570.000000	25.104386
5568.000000	25.152297
5566.000000	25.200934
5564.000000	25.248461
5562.000000	25.296024
5560.000000	25.342891
5558.000000	25.390287
5556.000000	25.437515
5554.000000	25.484365
5552.000000	25.531014
5550.000000	25.578374
5548.000000	25.627213
5546.000000	25.677265
5544.000000	25.726392
5542.000000	25.773368
5540.000000	25.818411
5538.000000	25.863019
5536.000000	25.909426
5534.000000	25.957206
5532.000000	26.006223
5530.000000	26.055738
5528.000000	26.105452
5526.000000	26.153615
5524.000000	26.199893
5522.000000	26.246116
5520.000000	26.291811
5518.000000	26.338056
5516.000000	26.385240
5514.000000	26.433925
5512.000000	26.480120
5510.000000	26.524954
5508.000000	26.572840
5506.000000	26.623537
5504.000000	26.674015
5502.000000	26.722093
5500.000000	26.770183
5498.000000	26.816734
5496.000000	26.859512
5494.000000	26.903225
5492.000000	26.950952
5490.000000	27.002052
5488.000000	27.052293
5486.000000	27.103871
5484.000000	27.157486
5482.000000	27.210321
5480.000000	27.256970
5478.000000	27.298086
5476.000000	27.341629
5474.000000	27.392464
5472.000000	27.447251
5470.000000	27.499645
5468.000000	27.548255
5466.000000	27.595841
5464.000000	27.642194
5462.000000	27.689199
5460.000000	27.739510
5458.000000	27.793784
5456.000000	27.847380
5454.000000	27.896828
5452.000000	27.941519
5450.000000	27.982703
5448.000000	28.023764
5446.000000	28.069735
5444.000000	28.119139
5442.000000	28.173599
5440.000000	28.228165
5438.000000	28.278193
5436.000000	28.323658
5434.000000	28.369409
5432.000000	28.416735
5430.000000	28.464804
5428.000000	28.516211
5426.000000	28.574056
5424.000000	28.631359
5422.000000	28.683352
5420.000000	28.731352
5418.000000	28.773376
5416.000000	28.810150
5414.000000	28.848958
5412.000000	28.896329
5410.000000	28.954223
5408.000000	29.014461
5406.000000	29.071455
5404.000000	29.123263
5402.000000	29.173401
5400.000000	29.221312
5398.000000	29.265043
5396.000000	29.304855
5394.000000	29.351621
5392.000000	29.407347
5390.000000	29.464893
5388.000000	29.514743
5386.000000	29.562886
5384.000000	29.615576
5382.000000	29.668027
5380.000000	29.712119
5378.000000	29.755878
5376.000000	29.808697
5374.000000	29.868790
5372.000000	29.927021
5370.000000	29.981335
5368.000000	30.032487
5366.000000	30.081345
5364.000000	30.129520
5362.000000	30.180992
5360.000000	30.232697
5358.000000	30.279113
5356.000000	30.319718
5354.000000	30.365142
5352.000000	30.419238
5350.000000	30.473985
5348.000000	30.518535
5346.000000	30.560705
5344.000000	30.610685
5342.000000	30.662364
5340.000000	30.709497
5338.000000	30.759231
5336.000000	30.817342
5334.000000	30.877176
5332.000000	30.930230
5330.000000	30.978168
5328.000000	31.027108
5326.000000	31.080606
5324.000000	31.138066
5322.000000	31.193942
5320.000000	31.243856
5318.000000	31.292998
5316.000000	31.343540
5314.000000	31.396273
5312.000000	31.445007
5310.000000	31.490228
5308.000000	31.538103
5306.000000	31.591151
5304.000000	31.645636
5302.000000	31.697512
5300.000000	31.748346
5298.000000	31.800663
5296.000000	31.852616
5294.000000	31.900750
5292.000000	31.946971
5290.000000	31.995917
5288.000000	32.048910
5286.000000	32.104519
5284.000000	32.158498
5282.000000	32.211798
5280.000000	32.265009
5278.000000	32.319932
5276.000000	32.374833
5274.000000	32.427131
5272.000000	32.475800
5270.000000	32.522773
5268.000000	32.566872
5266.000000	32.611194
5264.000000	32.659987
5262.000000	32.717860
5260.000000	32.779545
5258.000000	32.834053
5256.000000	32.881974
5254.000000	32.931250
5252.000000	32.981853
5250.000000	33.030726
5248.000000	33.078764
5246.000000	33.132350
5244.000000	33.191086
5242.000000	33.249810
5240.000000	33.305445
5238.000000	33.357534
5236.000000	33.407449
5234.000000	33.456385
5232.000000	33.506547
5230.000000	33.557774
5228.000000	33.605965
5226.000000	33.654936
5224.000000	33.710015
5222.000000	33.769365
5220.000000	33.824962
5218.000000	33.877860
5216.000000	33.931187
5214.000000	33.982994
5212.000000	34.028937
5210.000000	34.069071
5208.000000	34.111235
5206.000000	34.165511
5204.000000	34.229922
5202.000000	34.292247
5200.000000	34.346077
5198.000000	34.397485
5196.000000	34.451663
5194.000000	34.509033
5192.000000	34.564563
5190.000000	34.618547
5188.000000	34.670085
5186.000000	34.722178
5184.000000	34.776693
5182.000000	34.833302
5180.000000	34.888912
5178.000000	34.944254
5176.000000	34.999747
5174.000000	35.054611
5172.000000	35.107498
5170.000000	35.162016
5168.000000	35.217946
5166.000000	35.272829
5164.000000	35.325583
5162.000000	35.378248
5160.000000	35.431906
5158.000000	35.486457
5156.000000	35.540916
5154.000000	35.596205
5152.000000	35.652003
5150.000000	35.707002
5148.000000	35.760435
5146.000000	35.814175
5144.000000	35.868330
5142.000000	35.922489
5140.000000	35.976722
5138.000000	36.031063
5136.000000	36.084954
5134.000000	36.138761
5132.000000	36.193577
5130.000000	36.248297
5128.000000	36.302250
5126.000000	36.355333
5124.000000	36.408402
5122.000000	36.461589
5120.000000	36.514459
5118.000000	36.567209
5116.000000	36.620972
5114.000000	36.676653
5112.000000	36.732103
5110.000000	36.787336
5108.000000	36.842199
5106.000000	36.897888
5104.000000	36.953396
5102.000000	37.010382
5100.000000	37.065406
5098.000000	37.120485
5096.000000	37.176058
5094.000000	37.233555
5092.000000	37.289993
5090.000000	37.345922
5088.000000	37.402731
5086.000000	37.460592
5084.000000	37.518167
5082.000000	37.573387
5080.000000	37.627025
5078.000000	37.683177
5076.000000	37.741031
5074.000000	37.798706
5072.000000	37.855872
5070.000000	37.913349
5068.000000	37.969169
5066.000000	38.024263
5064.000000	38.080647
5062.000000	38.137445
5060.000000	38.193622
5058.000000	38.250002
5056.000000	38.305987
5054.000000	38.361957
5052.000000	38.417520
5050.000000	38.472341
5048.000000	38.525499
5046.000000	38.581001
5044.000000	38.639246
5042.000000	38.697921
5040.000000	38.754309
5038.000000	38.810018
5036.000000	38.865520
5034.000000	38.921064
5032.000000	38.976240
5030.000000	39.031728
5028.000000	39.086082
5026.000000	39.139901
5024.000000	39.194633
5022.000000	39.251570
5020.000000	39.309531
5018.000000	39.367945
5016.000000	39.425318
5014.000000	39.481501
5012.000000	39.536858
5010.000000	39.592745
5008.000000	39.649635
5006.000000	39.707916
5004.000000	39.766451
5002.000000	39.823786
5000.000000	39.879498
4998.000000	39.936331
4996.000000	39.994922
4994.000000	40.054802
4992.000000	40.114069
4990.000000	40.172504
4988.000000	40.230132
4986.000000	40.288087
4984.000000	40.345962
4982.000000	40.403649
4980.000000	40.461661
4978.000000	40.520443
4976.000000	40.577750
4974.000000	40.634582
4972.000000	40.692183
4970.000000	40.751173
4968.000000	40.808437
4966.000000	40.864771
4964.000000	40.920681
4962.000000	40.978195
4960.000000	41.036280
4958.000000	41.095795
4956.000000	41.155872
4954.000000	41.213581
4952.000000	41.269501
4950.000000	41.326012
4948.000000	41.383250
4946.000000	41.438255
4944.000000	41.493425
4942.000000	41.551052
4940.000000	41.608505
4938.000000	41.664864
4936.000000	41.720461
4934.000000	41.777032
4932.000000	41.833024
4930.000000	41.888873
4928.000000	41.944510
4926.000000	42.000978
4924.000000	42.057206
4922.000000	42.114317
4920.000000	42.172948
4918.000000	42.231589
4916.000000	42.288534
4914.000000	42.345880
4912.000000	42.403639
4910.000000	42.461221
4908.000000	42.518662
4906.000000	42.577429
4904.000000	42.636145
4902.000000	42.696375
4900.000000	42.757849
4898.000000	42.817588
4896.000000	42.873811
4894.000000	42.931408
4892.000000	42.991547
4890.000000	43.051290
4888.000000	43.109126
4886.000000	43.168238
4884.000000	43.228664
4882.000000	43.289159
4880.000000	43.348242
4878.000000	43.407173
4876.000000	43.466079
4874.000000	43.524304
4872.000000	43.581849
4870.000000	43.640187
4868.000000	43.699287
4866.000000	43.757885
4864.000000	43.815494
4862.000000	43.873390
4860.000000	43.931730
4858.000000	43.989698
4856.000000	44.047628
4854.000000	44.105638
4852.000000	44.163597
4850.000000	44.221325
4848.000000	44.279351
4846.000000	44.337449
4844.000000	44.394423
4842.000000	44.452294
4840.000000	44.511431
4838.000000	44.570655
4836.000000	44.627838
4834.000000	44.684288
4832.000000	44.739960
4830.000000	44.796699
4828.000000	44.854549
4826.000000	44.912987
4824.000000	44.971767
4822.000000	45.031076
4820.000000	45.088413
4818.000000	45.145278
4816.000000	45.202722
4814.000000	45.261538
4812.000000	45.321418
4810.000000	45.382480
4808.000000	45.442188
4806.000000	45.500835
4804.000000	45.559542
4802.000000	45.619027
4800.000000	45.678869
4798.000000	45.739870
4796.000000	45.800679
4794.000000	45.860636
4792.000000	45.920112
4790.000000	45.981216
4788.000000	46.042457
4786.000000	46.102765
4784.000000	46.162754
4782.000000	46.223526
4780.000000	46.282997
4778.000000	46.341802
4776.000000	46.401858
4774.000000	46.463021
4772.000000	46.522345
4770.000000	46.580793
4768.000000	46.640033
4766.000000	46.699999
4764.000000	46.758542
4762.000000	46.815987
4760.000000	46.874006
4758.000000	46.934141
4756.000000	46.994314
4754.000000	47.053266
4752.000000	47.111233
4750.000000	47.170000
4748.000000	47.228352
4746.000000	47.287067
4744.000000	47.345113
4742.000000	47.402312
4740.000000	47.458881
4738.000000	47.516155
4736.000000	47.574740
4734.000000	47.635019
4732.000000	47.695031
4730.000000	47.754526
4728.000000	47.813178
4726.000000	47.871840
4724.000000	47.930577
4722.000000	47.990932
4720.000000	48.051559
4718.000000	48.112007
4716.000000	48.171403
4714.000000	48.231838
4712.000000	48.293474
4710.000000	48.355208
4708.000000	48.415634
4706.000000	48.477933
4704.000000	48.542298
4702.000000	48.605880
4700.000000	48.666904
4698.000000	48.728371
4696.000000	48.790463
4694.000000	48.852402
4692.000000	48.914915
4690.000000	48.977591
4688.000000	49.038685
4686.000000	49.099026
4684.000000	49.159821
4682.000000	49.221234
4680.000000	49.282445
4678.000000	49.344812
4676.000000	49.407721
4674.000000	49.469900
4672.000000	49.529356
4670.000000	49.588483
4668.000000	49.649622
4666.000000	49.712764
4664.000000	49.773840
4662.000000	49.834288
4660.000000	49.895653
4658.000000	49.956508
4656.000000	50.015976
4654.000000	50.077326
4652.000000	50.139382
4650.000000	50.200701
4648.000000	50.261076
4646.000000	50.322572
4644.000000	50.384810
4642.000000	50.446072
4640.000000	50.505229
4638.000000	50.565725
4636.000000	50.627526
4634.000000	50.688719
4632.000000	50.748710
4630.000000	50.808587
4628.000000	50.868353
4626.000000	50.929054
4624.000000	50.990378
4622.000000	51.053330
4620.000000	51.117445
4618.000000	51.180941
4616.000000	51.242878
4614.000000	51.305794
4612.000000	51.369458
4610.000000	51.433671
4608.000000	51.498713
4606.000000	51.562774
4604.000000	51.625017
4602.000000	51.689010
4600.000000	51.755055
4598.000000	51.820892
4596.000000	51.885322
4594.000000	51.949842
4592.000000	52.015048
4590.000000	52.080356
4588.000000	52.143658
4586.000000	52.208021
4584.000000	52.274422
4582.000000	52.340088
4580.000000	52.402709
4578.000000	52.464190
4576.000000	52.526547
4574.000000	52.590708
4572.000000	52.655116
4570.000000	52.718759
4568.000000	52.782266
4566.000000	52.846367
4564.000000	52.910093
4562.000000	52.973877
4560.000000	53.036886
4558.000000	53.099697
4556.000000	53.161367
4554.000000	53.222646
4552.000000	53.283639
4550.000000	53.346822
4548.000000	53.410531
4546.000000	53.473764
4544.000000	53.534510
4542.000000	53.594650
4540.000000	53.656829
4538.000000	53.721643
4536.000000	53.784893
4534.000000	53.846921
4532.000000	53.910150
4530.000000	53.975259
4528.000000	54.039103
4526.000000	54.102156
4524.000000	54.166282
4522.000000	54.231452
4520.000000	54.295120
4518.000000	54.357971
4516.000000	54.420770
4514.000000	54.484190
4512.000000	54.548118
4510.000000	54.612823
4508.000000	54.678362
4506.000000	54.745302
4504.000000	54.812118
4502.000000	54.878421
4500.000000	54.944882
4498.000000	55.011168
4496.000000	55.075380
4494.000000	55.139816
4492.000000	55.206028
4490.000000	55.272810
4488.000000	55.337832
4486.000000	55.401947
4484.000000	55.465207
4482.000000	55.528827
4480.000000	55.592354
4478.000000	55.655924
4476.000000	55.720004
4474.000000	55.784400
4472.000000	55.847757
4470.000000	55.911479
4468.000000	55.974997
4466.000000	56.036284
4464.000000	56.096866
4462.000000	56.160095
4460.000000	56.224814
4458.000000	56.287727
4456.000000	56.348205
4454.000000	56.409037
4452.000000	56.470474
4450.000000	56.533240
4448.000000	56.595672
4446.000000	56.658629
4444.000000	56.722133
4442.000000	56.784669
4440.000000	56.845236
4438.000000	56.908366
4436.000000	56.972131
4434.000000	57.035018
4432.000000	57.097562
4430.000000	57.160739
4428.000000	57.223078
4426.000000	57.287172
4424.000000	57.350961
4422.000000	57.413726
4420.000000	57.476979
4418.000000	57.542353
4416.000000	57.607263
4414.000000	57.670987
4412.000000	57.732568
4410.000000	57.795910
4408.000000	57.862218
4406.000000	57.928067
4404.000000	57.990564
4402.000000	58.053559
4400.000000	58.119297
4398.000000	58.185484
4396.000000	58.248642
4394.000000	58.311074
4392.000000	58.374617
4390.000000	58.438736
4388.000000	58.500648
4386.000000	58.561047
4384.000000	58.622166
4382.000000	58.684654
4380.000000	58.745653
4378.000000	58.806364
4376.000000	58.867176
4374.000000	58.927869
4372.000000	58.988036
4370.000000	59.048872
4368.000000	59.108110
4366.000000	59.167228
4364.000000	59.226936
4362.000000	59.287297
4360.000000	59.347746
4358.000000	59.410106
4356.000000	59.473418
4354.000000	59.536938
4352.000000	59.599782
4350.000000	59.662856
4348.000000	59.725565
4346.000000	59.788730
4344.000000	59.852680
4342.000000	59.915959
4340.000000	59.977303
4338.000000	60.039514
4336.000000	60.103153
4334.000000	60.167540
4332.000000	60.232503
4330.000000	60.298249
4328.000000	60.362881
4326.000000	60.426999
4324.000000	60.492096
4322.000000	60.560032
4320.000000	60.629196
4318.000000	60.697779
4316.000000	60.765164
4314.000000	60.831448
4312.000000	60.896822
4310.000000	60.964045
4308.000000	61.031345
4306.000000	61.097667
4304.000000	61.164264
4302.000000	61.231886
4300.000000	61.298718
4298.000000	61.363911
4296.000000	61.427476
4294.000000	61.491788
4292.000000	61.556543
