PE IR       SUBTECH     SPECTRUM    ASCII       PEDS        4.00        
   -1
TE109A_066_80K_after_130K_BG.ASC
20/04/21
19:21:45.00
20/04/21
19:21:45.00
Administrator
TE109A, Tuesday, April 21 2020, 066.
1000.000000
#HDR
-1
-1
#GR
cm-1
EGY
1.0
0.0
6000.000000
-2.000000
2501
8
105.454215
10.928394
#DATA
6000.000000	16.444175
5998.000000	16.477110
5996.000000	16.511316
5994.000000	16.543418
5992.000000	16.575471
5990.000000	16.608320
5988.000000	16.640946
5986.000000	16.673200
5984.000000	16.704217
5982.000000	16.736519
5980.000000	16.771990
5978.000000	16.807373
5976.000000	16.841754
5974.000000	16.875049
5972.000000	16.907246
5970.000000	16.939869
5968.000000	16.974075
5966.000000	17.008967
5964.000000	17.043509
5962.000000	17.076163
5960.000000	17.109366
5958.000000	17.145130
5956.000000	17.179354
5954.000000	17.212144
5952.000000	17.244839
5950.000000	17.278850
5948.000000	17.315691
5946.000000	17.350550
5944.000000	17.384624
5942.000000	17.417898
5940.000000	17.451726
5938.000000	17.485311
5936.000000	17.517640
5934.000000	17.549760
5932.000000	17.582526
5930.000000	17.617032
5928.000000	17.651180
5926.000000	17.685704
5924.000000	17.721353
5922.000000	17.756971
5920.000000	17.792788
5918.000000	17.829613
5916.000000	17.867122
5914.000000	17.904061
5912.000000	17.938931
5910.000000	17.973969
5908.000000	18.009756
5906.000000	18.047549
5904.000000	18.083959
5902.000000	18.120965
5900.000000	18.156993
5898.000000	18.193748
5896.000000	18.230726
5894.000000	18.266761
5892.000000	18.301661
5890.000000	18.337294
5888.000000	18.374160
5886.000000	18.411618
5884.000000	18.447367
5882.000000	18.482058
5880.000000	18.517404
5878.000000	18.553092
5876.000000	18.590181
5874.000000	18.627291
5872.000000	18.663464
5870.000000	18.699685
5868.000000	18.735404
5866.000000	18.773241
5864.000000	18.811542
5862.000000	18.849466
5860.000000	18.885534
5858.000000	18.921316
5856.000000	18.959056
5854.000000	18.997596
5852.000000	19.037385
5850.000000	19.077685
5848.000000	19.118154
5846.000000	19.157658
5844.000000	19.195429
5842.000000	19.235126
5840.000000	19.277645
5838.000000	19.321318
5836.000000	19.362701
5834.000000	19.402428
5832.000000	19.441613
5830.000000	19.482216
5828.000000	19.524222
5826.000000	19.566043
5824.000000	19.607206
5822.000000	19.648076
5820.000000	19.688434
5818.000000	19.730168
5816.000000	19.771754
5814.000000	19.813115
5812.000000	19.853886
5810.000000	19.895061
5808.000000	19.936003
5806.000000	19.976337
5804.000000	20.015513
5802.000000	20.055270
5800.000000	20.095591
5798.000000	20.136996
5796.000000	20.178422
5794.000000	20.219678
5792.000000	20.260058
5790.000000	20.300790
5788.000000	20.341374
5786.000000	20.382319
5784.000000	20.423127
5782.000000	20.463910
5780.000000	20.505790
5778.000000	20.549779
5776.000000	20.593823
5774.000000	20.635466
5772.000000	20.675458
5770.000000	20.716030
5768.000000	20.757744
5766.000000	20.799447
5764.000000	20.840948
5762.000000	20.884187
5760.000000	20.926987
5758.000000	20.968098
5756.000000	21.008439
5754.000000	21.049059
5752.000000	21.091608
5750.000000	21.133622
5748.000000	21.174369
5746.000000	21.216034
5744.000000	21.258707
5742.000000	21.301864
5740.000000	21.341867
5738.000000	21.379724
5736.000000	21.417736
5734.000000	21.457808
5732.000000	21.499680
5730.000000	21.541501
5728.000000	21.581722
5726.000000	21.621755
5724.000000	21.663619
5722.000000	21.706977
5720.000000	21.749289
5718.000000	21.791825
5716.000000	21.834867
5714.000000	21.878545
5712.000000	21.922069
5710.000000	21.965511
5708.000000	22.010035
5706.000000	22.054349
5704.000000	22.097063
5702.000000	22.140186
5700.000000	22.184999
5698.000000	22.231510
5696.000000	22.278149
5694.000000	22.322247
5692.000000	22.365973
5690.000000	22.409698
5688.000000	22.454288
5686.000000	22.501683
5684.000000	22.548072
5682.000000	22.592788
5680.000000	22.636320
5678.000000	22.681316
5676.000000	22.727555
5674.000000	22.773726
5672.000000	22.818732
5670.000000	22.864737
5668.000000	22.910205
5666.000000	22.955198
5664.000000	23.000861
5662.000000	23.046801
5660.000000	23.093296
5658.000000	23.139051
5656.000000	23.183563
5654.000000	23.228516
5652.000000	23.273835
5650.000000	23.318900
5648.000000	23.363601
5646.000000	23.409411
5644.000000	23.456684
5642.000000	23.503744
5640.000000	23.547415
5638.000000	23.590562
5636.000000	23.636163
5634.000000	23.684032
5632.000000	23.730226
5630.000000	23.773888
5628.000000	23.817439
5626.000000	23.862118
5624.000000	23.907839
5622.000000	23.954666
5620.000000	24.000118
5618.000000	24.045430
5616.000000	24.091180
5614.000000	24.137452
5612.000000	24.182047
5610.000000	24.226157
5608.000000	24.272234
5606.000000	24.318865
5604.000000	24.363517
5602.000000	24.408035
5600.000000	24.453779
5598.000000	24.500494
5596.000000	24.547106
5594.000000	24.594419
5592.000000	24.641633
5590.000000	24.687977
5588.000000	24.733876
5586.000000	24.781750
5584.000000	24.830271
5582.000000	24.877603
5580.000000	24.923266
5578.000000	24.969364
5576.000000	25.015538
5574.000000	25.062679
5572.000000	25.109924
5570.000000	25.157899
5568.000000	25.204849
5566.000000	25.252297
5564.000000	25.301238
5562.000000	25.351244
5560.000000	25.398185
5558.000000	25.444295
5556.000000	25.491342
5554.000000	25.539541
5552.000000	25.586553
5550.000000	25.632836
5548.000000	25.680996
5546.000000	25.730634
5544.000000	25.778904
5542.000000	25.826764
5540.000000	25.873491
5538.000000	25.920363
5536.000000	25.966767
5534.000000	26.014830
5532.000000	26.062973
5530.000000	26.110758
5528.000000	26.157894
5526.000000	26.205448
5524.000000	26.252331
5522.000000	26.299365
5520.000000	26.345928
5518.000000	26.392582
5516.000000	26.439853
5514.000000	26.488796
5512.000000	26.537089
5510.000000	26.582734
5508.000000	26.628019
5506.000000	26.675661
5504.000000	26.726130
5502.000000	26.777090
5500.000000	26.827190
5498.000000	26.873636
5496.000000	26.915184
5494.000000	26.956705
5492.000000	27.002790
5490.000000	27.054721
5488.000000	27.107787
5486.000000	27.160075
5484.000000	27.211698
5482.000000	27.262619
5480.000000	27.307997
5478.000000	27.349829
5476.000000	27.394929
5474.000000	27.446859
5472.000000	27.500995
5470.000000	27.552217
5468.000000	27.601810
5466.000000	27.650224
5464.000000	27.696511
5462.000000	27.743576
5460.000000	27.792935
5458.000000	27.846303
5456.000000	27.900705
5454.000000	27.952322
5452.000000	27.998626
5450.000000	28.039950
5448.000000	28.081482
5446.000000	28.127441
5444.000000	28.175658
5442.000000	28.226703
5440.000000	28.278121
5438.000000	28.327677
5436.000000	28.376540
5434.000000	28.424411
5432.000000	28.471661
5430.000000	28.519152
5428.000000	28.570767
5426.000000	28.628253
5424.000000	28.684305
5422.000000	28.736100
5420.000000	28.784125
5418.000000	28.825164
5416.000000	28.860212
5414.000000	28.898328
5412.000000	28.947229
5410.000000	29.006294
5408.000000	29.066086
5406.000000	29.122647
5404.000000	29.175759
5402.000000	29.227199
5400.000000	29.275535
5398.000000	29.318302
5396.000000	29.357235
5394.000000	29.404292
5392.000000	29.461214
5390.000000	29.518819
5388.000000	29.566665
5386.000000	29.613244
5384.000000	29.666758
5382.000000	29.722058
5380.000000	29.768266
5378.000000	29.811226
5376.000000	29.860518
5374.000000	29.918937
5372.000000	29.977212
5370.000000	30.031870
5368.000000	30.082536
5366.000000	30.131854
5364.000000	30.182568
5362.000000	30.236937
5360.000000	30.290119
5358.000000	30.335989
5356.000000	30.374736
5354.000000	30.418104
5352.000000	30.469073
5350.000000	30.522633
5348.000000	30.566940
5346.000000	30.609485
5344.000000	30.658559
5342.000000	30.710296
5340.000000	30.759082
5338.000000	30.810112
5336.000000	30.868424
5334.000000	30.928352
5332.000000	30.981478
5330.000000	31.029029
5328.000000	31.077555
5326.000000	31.131330
5324.000000	31.189005
5322.000000	31.245261
5320.000000	31.297806
5318.000000	31.347209
5316.000000	31.395350
5314.000000	31.446006
5312.000000	31.497204
5310.000000	31.544138
5308.000000	31.590975
5306.000000	31.642619
5304.000000	31.697189
5302.000000	31.749180
5300.000000	31.799148
5298.000000	31.850841
5296.000000	31.902666
5294.000000	31.950450
5292.000000	31.996311
5290.000000	32.045911
5288.000000	32.099826
5286.000000	32.155013
5284.000000	32.207906
5282.000000	32.261557
5280.000000	32.316765
5278.000000	32.373260
5276.000000	32.426862
5274.000000	32.477578
5272.000000	32.527344
5270.000000	32.577491
5268.000000	32.622296
5266.000000	32.663781
5264.000000	32.710964
5262.000000	32.769800
5260.000000	32.830430
5258.000000	32.882546
5256.000000	32.931457
5254.000000	32.984435
5252.000000	33.035469
5250.000000	33.080375
5248.000000	33.125915
5246.000000	33.180751
5244.000000	33.241719
5242.000000	33.302057
5240.000000	33.358983
5238.000000	33.412889
5236.000000	33.463977
5234.000000	33.511743
5232.000000	33.559861
5230.000000	33.609052
5228.000000	33.656251
5226.000000	33.704336
5224.000000	33.759132
5222.000000	33.818979
5220.000000	33.874219
5218.000000	33.926823
5216.000000	33.981403
5214.000000	34.035398
5212.000000	34.081627
5210.000000	34.121962
5208.000000	34.166321
5206.000000	34.223023
5204.000000	34.286527
5202.000000	34.347101
5200.000000	34.399311
5198.000000	34.449843
5196.000000	34.504122
5194.000000	34.560593
5192.000000	34.615885
5190.000000	34.669407
5188.000000	34.721211
5186.000000	34.774432
5184.000000	34.829823
5182.000000	34.886410
5180.000000	34.940315
5178.000000	34.994006
5176.000000	35.049271
5174.000000	35.104853
5172.000000	35.158022
5170.000000	35.211449
5168.000000	35.266568
5166.000000	35.321862
5164.000000	35.376614
5162.000000	35.431058
5160.000000	35.485686
5158.000000	35.540247
5156.000000	35.594703
5154.000000	35.649463
5152.000000	35.704277
5150.000000	35.759723
5148.000000	35.813900
5146.000000	35.865853
5144.000000	35.917630
5142.000000	35.970996
5140.000000	36.025561
5138.000000	36.081346
5136.000000	36.137191
5134.000000	36.193154
5132.000000	36.247103
5130.000000	36.301292
5128.000000	36.354935
5126.000000	36.408458
5124.000000	36.461930
5122.000000	36.515974
5120.000000	36.569752
5118.000000	36.624135
5116.000000	36.679558
5114.000000	36.733289
5112.000000	36.785760
5110.000000	36.840908
5108.000000	36.897409
5106.000000	36.953409
5104.000000	37.008254
5102.000000	37.063442
5100.000000	37.118343
5098.000000	37.174061
5096.000000	37.229589
5094.000000	37.285435
5092.000000	37.342153
5090.000000	37.399279
5088.000000	37.454659
5086.000000	37.510048
5084.000000	37.567102
5082.000000	37.625513
5080.000000	37.683185
5078.000000	37.738879
5076.000000	37.793290
5074.000000	37.848565
5072.000000	37.905106
5070.000000	37.961645
5068.000000	38.018851
5066.000000	38.078620
5064.000000	38.137618
5062.000000	38.193937
5060.000000	38.248169
5058.000000	38.303137
5056.000000	38.358144
5054.000000	38.413786
5052.000000	38.470354
5050.000000	38.527122
5048.000000	38.582479
5046.000000	38.637753
5044.000000	38.693039
5042.000000	38.749736
5040.000000	38.806349
5038.000000	38.861103
5036.000000	38.916074
5034.000000	38.974147
5032.000000	39.032297
5030.000000	39.086876
5028.000000	39.140589
5026.000000	39.196551
5024.000000	39.253136
5022.000000	39.310009
5020.000000	39.366211
5018.000000	39.421002
5016.000000	39.475961
5014.000000	39.532564
5012.000000	39.590364
5010.000000	39.648302
5008.000000	39.705859
5006.000000	39.762361
5004.000000	39.816711
5002.000000	39.872517
5000.000000	39.930446
4998.000000	39.990949
4996.000000	40.050611
4994.000000	40.108581
4992.000000	40.164624
4990.000000	40.221798
4988.000000	40.281039
4986.000000	40.340056
4984.000000	40.396865
4982.000000	40.453281
4980.000000	40.511200
4978.000000	40.570886
4976.000000	40.630475
4974.000000	40.689104
4972.000000	40.746311
4970.000000	40.802751
4968.000000	40.859103
4966.000000	40.918400
4964.000000	40.977826
4962.000000	41.033920
4960.000000	41.088471
4958.000000	41.146402
4956.000000	41.205076
4954.000000	41.263361
4952.000000	41.321181
4950.000000	41.378306
4948.000000	41.433757
4946.000000	41.490091
4944.000000	41.547002
4942.000000	41.603741
4940.000000	41.659006
4938.000000	41.714488
4936.000000	41.772389
4934.000000	41.831361
4932.000000	41.886961
4930.000000	41.940908
4928.000000	41.996701
4926.000000	42.053679
4924.000000	42.111275
4922.000000	42.170492
4920.000000	42.229137
4918.000000	42.286155
4916.000000	42.342940
4914.000000	42.400010
4912.000000	42.456641
4910.000000	42.515254
4908.000000	42.574778
4906.000000	42.633047
4904.000000	42.690245
4902.000000	42.749253
4900.000000	42.809139
4898.000000	42.868343
4896.000000	42.926056
4894.000000	42.983003
4892.000000	43.041328
4890.000000	43.102393
4888.000000	43.163612
4886.000000	43.223248
4884.000000	43.282220
4882.000000	43.340590
4880.000000	43.398334
4878.000000	43.457661
4876.000000	43.518320
4874.000000	43.578716
4872.000000	43.637499
4870.000000	43.694969
4868.000000	43.751520
4866.000000	43.809549
4864.000000	43.867825
4862.000000	43.926697
4860.000000	43.985317
4858.000000	44.043991
4856.000000	44.102284
4854.000000	44.160811
4852.000000	44.217800
4850.000000	44.274995
4848.000000	44.333536
4846.000000	44.391856
4844.000000	44.448674
4842.000000	44.506382
4840.000000	44.564751
4838.000000	44.623109
4836.000000	44.680427
4834.000000	44.737158
4832.000000	44.793794
4830.000000	44.850869
4828.000000	44.908874
4826.000000	44.967806
4824.000000	45.026472
4822.000000	45.083202
4820.000000	45.139607
4818.000000	45.197653
4816.000000	45.256511
4814.000000	45.315486
4812.000000	45.374783
4810.000000	45.435506
4808.000000	45.494743
4806.000000	45.553164
4804.000000	45.613337
4802.000000	45.675970
4800.000000	45.737457
4798.000000	45.797192
4796.000000	45.856336
4794.000000	45.916368
4792.000000	45.976861
4790.000000	46.037667
4788.000000	46.097796
4786.000000	46.159056
4784.000000	46.220361
4782.000000	46.279930
4780.000000	46.336632
4778.000000	46.394668
4776.000000	46.453953
4774.000000	46.514226
4772.000000	46.574819
4770.000000	46.635399
4768.000000	46.695340
4766.000000	46.755058
4764.000000	46.812991
4762.000000	46.870297
4760.000000	46.928473
4758.000000	46.988689
4756.000000	47.049348
4754.000000	47.108623
4752.000000	47.164788
4750.000000	47.221514
4748.000000	47.280474
4746.000000	47.339821
4744.000000	47.398027
4742.000000	47.456233
4740.000000	47.514365
4738.000000	47.572479
4736.000000	47.631297
4734.000000	47.691863
4732.000000	47.750810
4730.000000	47.808318
4728.000000	47.866463
4726.000000	47.926403
4724.000000	47.984689
4722.000000	48.043580
4720.000000	48.104450
4718.000000	48.166036
4716.000000	48.225733
4714.000000	48.286643
4712.000000	48.348622
4710.000000	48.410301
4708.000000	48.471481
4706.000000	48.535047
4704.000000	48.600470
4702.000000	48.665136
4700.000000	48.727650
4698.000000	48.789441
4696.000000	48.850004
4694.000000	48.908741
4692.000000	48.969051
4690.000000	49.032266
4688.000000	49.094411
4686.000000	49.155536
4684.000000	49.216872
4682.000000	49.278593
4680.000000	49.339313
4678.000000	49.401099
4676.000000	49.463118
4674.000000	49.525404
4672.000000	49.585833
4670.000000	49.646119
4668.000000	49.707403
4666.000000	49.769556
4664.000000	49.830707
4662.000000	49.891756
4660.000000	49.952760
4658.000000	50.013734
4656.000000	50.073506
4654.000000	50.132917
4652.000000	50.193567
4650.000000	50.256471
4648.000000	50.318927
4646.000000	50.379763
4644.000000	50.439642
4642.000000	50.500443
4640.000000	50.561589
4638.000000	50.622812
4636.000000	50.683640
4634.000000	50.744140
4632.000000	50.803814
4630.000000	50.863632
4628.000000	50.924001
4626.000000	50.986062
4624.000000	51.047678
4622.000000	51.107537
4620.000000	51.168141
4618.000000	51.232601
4616.000000	51.297062
4614.000000	51.359600
4612.000000	51.422380
4610.000000	51.487964
4608.000000	51.553465
4606.000000	51.617787
4604.000000	51.682503
4602.000000	51.749064
4600.000000	51.813572
4598.000000	51.878321
4596.000000	51.944327
4594.000000	52.009587
4592.000000	52.071892
4590.000000	52.135522
4588.000000	52.200503
4586.000000	52.265416
4584.000000	52.328894
4582.000000	52.393009
4580.000000	52.457482
4578.000000	52.522018
4576.000000	52.585603
4574.000000	52.649878
4572.000000	52.714207
4570.000000	52.777631
4568.000000	52.840431
4566.000000	52.904409
4564.000000	52.968692
4562.000000	53.032693
4560.000000	53.095235
4558.000000	53.156525
4556.000000	53.217821
4554.000000	53.279870
4552.000000	53.342283
4550.000000	53.405605
4548.000000	53.468683
4546.000000	53.531060
4544.000000	53.592536
4542.000000	53.654133
4540.000000	53.717064
4538.000000	53.782790
4536.000000	53.847267
4534.000000	53.907829
4532.000000	53.967472
4530.000000	54.031472
4528.000000	54.096906
4526.000000	54.160923
4524.000000	54.224001
4522.000000	54.287453
4520.000000	54.350588
4518.000000	54.414832
4516.000000	54.478677
4514.000000	54.542047
4512.000000	54.606223
4510.000000	54.671631
4508.000000	54.737030
4506.000000	54.802160
4504.000000	54.867518
4502.000000	54.934622
4500.000000	55.002003
4498.000000	55.067773
4496.000000	55.132675
4494.000000	55.198720
4492.000000	55.264134
4490.000000	55.328587
4488.000000	55.393631
4486.000000	55.459914
4484.000000	55.524193
4482.000000	55.586963
4480.000000	55.649875
4478.000000	55.714794
4476.000000	55.780352
4474.000000	55.845325
4472.000000	55.908454
4470.000000	55.969763
4468.000000	56.030771
4466.000000	56.093834
4464.000000	56.156617
4462.000000	56.218350
4460.000000	56.279488
4458.000000	56.341604
4456.000000	56.404420
4454.000000	56.467101
4452.000000	56.527836
4450.000000	56.589936
4448.000000	56.652348
4446.000000	56.714079
4444.000000	56.776737
4442.000000	56.841117
4440.000000	56.903559
4438.000000	56.965524
4436.000000	57.028432
4434.000000	57.091612
4432.000000	57.153753
4430.000000	57.216423
4428.000000	57.280185
4426.000000	57.345116
4424.000000	57.409389
4422.000000	57.473790
4420.000000	57.537937
4418.000000	57.600975
4416.000000	57.663232
4414.000000	57.727091
4412.000000	57.791386
4410.000000	57.855833
4408.000000	57.920097
4406.000000	57.983940
4404.000000	58.047170
4402.000000	58.112558
4400.000000	58.179517
4398.000000	58.244755
4396.000000	58.306844
4394.000000	58.369068
4392.000000	58.431868
4390.000000	58.494044
4388.000000	58.554314
4386.000000	58.615794
4384.000000	58.679085
4382.000000	58.742022
4380.000000	58.803080
4378.000000	58.864572
4376.000000	58.925368
4374.000000	58.984979
4372.000000	59.044305
4370.000000	59.103890
4368.000000	59.163339
4366.000000	59.224115
4364.000000	59.284803
4362.000000	59.345817
4360.000000	59.407948
4358.000000	59.469091
4356.000000	59.529026
4354.000000	59.592048
4352.000000	59.656656
4350.000000	59.720499
4348.000000	59.783057
4346.000000	59.845007
4344.000000	59.907293
4342.000000	59.971541
4340.000000	60.034653
4338.000000	60.096455
4336.000000	60.160615
4334.000000	60.227639
4332.000000	60.293199
4330.000000	60.357545
4328.000000	60.421854
4326.000000	60.486979
4324.000000	60.552615
4322.000000	60.619315
4320.000000	60.686215
4318.000000	60.754417
4316.000000	60.822620
4314.000000	60.889999
4312.000000	60.955719
4310.000000	61.021710
4308.000000	61.088933
4306.000000	61.157366
4304.000000	61.224461
4302.000000	61.289711
4300.000000	61.353613
4298.000000	61.418602
4296.000000	61.485369
4294.000000	61.552056
4292.000000	61.615769
