PE IR       SUBTECH     SPECTRUM    ASCII       PEDS        4.00        
   -1
TE109A_067_80K_after_130K_SB.ASC
20/04/21
19:22:49.00
20/04/21
19:22:49.00
Administrator
TE109A, Tuesday, April 21 2020, 067.
1000.000000
#HDR
-1
-1
#GR
cm-1
EGY
1.0
0.0
6000.000000
-2.000000
2501
8
11.330969
1.189829
#DATA
6000.000000	1.958639
5998.000000	1.963087
5996.000000	1.966042
5994.000000	1.970250
5992.000000	1.974683
5990.000000	1.979137
5988.000000	1.983005
5986.000000	1.986098
5984.000000	1.990458
5982.000000	1.994812
5980.000000	1.999441
5978.000000	2.003419
5976.000000	2.006558
5974.000000	2.009715
5972.000000	2.014238
5970.000000	2.019223
5968.000000	2.024075
5966.000000	2.029642
5964.000000	2.034516
5962.000000	2.038138
5960.000000	2.039969
5958.000000	2.042951
5956.000000	2.047516
5954.000000	2.052735
5952.000000	2.055835
5950.000000	2.059368
5948.000000	2.064592
5946.000000	2.069420
5944.000000	2.074824
5942.000000	2.079030
5940.000000	2.081964
5938.000000	2.085461
5936.000000	2.089778
5934.000000	2.094446
5932.000000	2.098444
5930.000000	2.102867
5928.000000	2.108332
5926.000000	2.114401
5924.000000	2.117420
5922.000000	2.119468
5920.000000	2.122565
5918.000000	2.126389
5916.000000	2.128781
5914.000000	2.130991
5912.000000	2.134860
5910.000000	2.140411
5908.000000	2.147922
5906.000000	2.153805
5904.000000	2.158716
5902.000000	2.162190
5900.000000	2.164755
5898.000000	2.168801
5896.000000	2.173740
5894.000000	2.178556
5892.000000	2.183779
5890.000000	2.187049
5888.000000	2.190984
5886.000000	2.195709
5884.000000	2.200745
5882.000000	2.205591
5880.000000	2.209309
5878.000000	2.211944
5876.000000	2.215366
5874.000000	2.219604
5872.000000	2.224450
5870.000000	2.230301
5868.000000	2.236459
5866.000000	2.242513
5864.000000	2.246267
5862.000000	2.248847
5860.000000	2.251485
5858.000000	2.255616
5856.000000	2.259250
5854.000000	2.262155
5852.000000	2.266552
5850.000000	2.271740
5848.000000	2.277799
5846.000000	2.283334
5844.000000	2.289123
5842.000000	2.294920
5840.000000	2.299958
5838.000000	2.302803
5836.000000	2.305329
5834.000000	2.310138
5832.000000	2.316598
5830.000000	2.324296
5828.000000	2.330262
5826.000000	2.334020
5824.000000	2.337556
5822.000000	2.340955
5820.000000	2.346082
5818.000000	2.351700
5816.000000	2.356867
5814.000000	2.361936
5812.000000	2.366094
5810.000000	2.369856
5808.000000	2.373993
5806.000000	2.378990
5804.000000	2.385672
5802.000000	2.391841
5800.000000	2.397710
5798.000000	2.402048
5796.000000	2.405114
5794.000000	2.407763
5792.000000	2.410108
5790.000000	2.415692
5788.000000	2.422471
5786.000000	2.428184
5784.000000	2.432810
5782.000000	2.436643
5780.000000	2.441677
5778.000000	2.446847
5776.000000	2.450356
5774.000000	2.454569
5772.000000	2.458936
5770.000000	2.464485
5768.000000	2.470944
5766.000000	2.476720
5764.000000	2.481987
5762.000000	2.485982
5760.000000	2.489798
5758.000000	2.495650
5756.000000	2.502527
5754.000000	2.508965
5752.000000	2.514852
5750.000000	2.519097
5748.000000	2.522582
5746.000000	2.526330
5744.000000	2.531250
5742.000000	2.536733
5740.000000	2.541511
5738.000000	2.546855
5736.000000	2.553043
5734.000000	2.557105
5732.000000	2.559956
5730.000000	2.563569
5728.000000	2.569958
5726.000000	2.575603
5724.000000	2.579088
5722.000000	2.582825
5720.000000	2.588336
5718.000000	2.594222
5716.000000	2.599243
5714.000000	2.603657
5712.000000	2.609497
5710.000000	2.615478
5708.000000	2.620188
5706.000000	2.624680
5704.000000	2.629490
5702.000000	2.634570
5700.000000	2.639577
5698.000000	2.643694
5696.000000	2.649506
5694.000000	2.655118
5692.000000	2.660505
5690.000000	2.666151
5688.000000	2.671513
5686.000000	2.678486
5684.000000	2.684888
5682.000000	2.689767
5680.000000	2.694301
5678.000000	2.700077
5676.000000	2.706379
5674.000000	2.712159
5672.000000	2.716487
5670.000000	2.722286
5668.000000	2.727235
5666.000000	2.730885
5664.000000	2.734670
5662.000000	2.740934
5660.000000	2.748609
5658.000000	2.755863
5656.000000	2.761249
5654.000000	2.764649
5652.000000	2.768664
5650.000000	2.773771
5648.000000	2.780361
5646.000000	2.785581
5644.000000	2.790867
5642.000000	2.796328
5640.000000	2.802127
5638.000000	2.808288
5636.000000	2.814429
5634.000000	2.820323
5632.000000	2.825581
5630.000000	2.830200
5628.000000	2.834190
5626.000000	2.836690
5624.000000	2.840201
5622.000000	2.846307
5620.000000	2.853501
5618.000000	2.859998
5616.000000	2.865411
5614.000000	2.871222
5612.000000	2.877626
5610.000000	2.883134
5608.000000	2.887238
5606.000000	2.892058
5604.000000	2.898082
5602.000000	2.905265
5600.000000	2.910691
5598.000000	2.915550
5596.000000	2.920009
5594.000000	2.924729
5592.000000	2.930169
5590.000000	2.935699
5588.000000	2.941103
5586.000000	2.946901
5584.000000	2.954049
5582.000000	2.960269
5580.000000	2.964970
5578.000000	2.969832
5576.000000	2.974893
5574.000000	2.980627
5572.000000	2.987593
5570.000000	2.994818
5568.000000	3.001026
5566.000000	3.005723
5564.000000	3.010802
5562.000000	3.016657
5560.000000	3.022323
5558.000000	3.028810
5556.000000	3.034647
5554.000000	3.038281
5552.000000	3.042081
5550.000000	3.048199
5548.000000	3.055426
5546.000000	3.062405
5544.000000	3.066724
5542.000000	3.072129
5540.000000	3.079616
5538.000000	3.087406
5536.000000	3.093850
5534.000000	3.096837
5532.000000	3.100243
5530.000000	3.105141
5528.000000	3.110669
5526.000000	3.115581
5524.000000	3.119791
5522.000000	3.126089
5520.000000	3.133883
5518.000000	3.140681
5516.000000	3.145499
5514.000000	3.150071
5512.000000	3.155030
5510.000000	3.159946
5508.000000	3.163488
5506.000000	3.168336
5504.000000	3.175299
5502.000000	3.182110
5500.000000	3.187894
5498.000000	3.192769
5496.000000	3.198820
5494.000000	3.204290
5492.000000	3.209611
5490.000000	3.214523
5488.000000	3.219061
5486.000000	3.225088
5484.000000	3.234255
5482.000000	3.242486
5480.000000	3.246773
5478.000000	3.249207
5476.000000	3.254774
5474.000000	3.263210
5472.000000	3.270763
5470.000000	3.277376
5468.000000	3.282207
5466.000000	3.287069
5464.000000	3.291782
5462.000000	3.298106
5460.000000	3.305825
5458.000000	3.312372
5456.000000	3.318081
5454.000000	3.322916
5452.000000	3.328148
5450.000000	3.333646
5448.000000	3.340026
5446.000000	3.346376
5444.000000	3.351654
5442.000000	3.356682
5440.000000	3.361714
5438.000000	3.367345
5436.000000	3.372754
5434.000000	3.379018
5432.000000	3.385543
5430.000000	3.392212
5428.000000	3.398694
5426.000000	3.405393
5424.000000	3.411955
5422.000000	3.418626
5420.000000	3.424607
5418.000000	3.429264
5416.000000	3.432543
5414.000000	3.436254
5412.000000	3.441807
5410.000000	3.447999
5408.000000	3.454577
5406.000000	3.462249
5404.000000	3.469656
5402.000000	3.474660
5400.000000	3.478296
5398.000000	3.482864
5396.000000	3.488403
5394.000000	3.494716
5392.000000	3.502015
5390.000000	3.509005
5388.000000	3.514892
5386.000000	3.522089
5384.000000	3.529312
5382.000000	3.534653
5380.000000	3.537583
5378.000000	3.541856
5376.000000	3.548328
5374.000000	3.555694
5372.000000	3.562810
5370.000000	3.568780
5368.000000	3.572793
5366.000000	3.577821
5364.000000	3.585696
5362.000000	3.594141
5360.000000	3.600080
5358.000000	3.603567
5356.000000	3.607725
5354.000000	3.614065
5352.000000	3.620595
5350.000000	3.627875
5348.000000	3.633261
5346.000000	3.637906
5344.000000	3.643777
5342.000000	3.650775
5340.000000	3.657333
5338.000000	3.663170
5336.000000	3.669687
5334.000000	3.675306
5332.000000	3.679335
5330.000000	3.683883
5328.000000	3.690570
5326.000000	3.697337
5324.000000	3.703469
5322.000000	3.709857
5320.000000	3.716897
5318.000000	3.724099
5316.000000	3.729208
5314.000000	3.733273
5312.000000	3.737794
5310.000000	3.743822
5308.000000	3.750186
5306.000000	3.756099
5304.000000	3.762483
5302.000000	3.768793
5300.000000	3.774302
5298.000000	3.777888
5296.000000	3.782122
5294.000000	3.788646
5292.000000	3.796297
5290.000000	3.803705
5288.000000	3.811056
5286.000000	3.817790
5284.000000	3.823691
5282.000000	3.828380
5280.000000	3.833664
5278.000000	3.839282
5276.000000	3.844803
5274.000000	3.850076
5272.000000	3.854917
5270.000000	3.859892
5268.000000	3.864947
5266.000000	3.870281
5264.000000	3.876184
5262.000000	3.882445
5260.000000	3.888978
5258.000000	3.894687
5256.000000	3.901092
5254.000000	3.907781
5252.000000	3.912786
5250.000000	3.916115
5248.000000	3.920236
5246.000000	3.926752
5244.000000	3.933900
5242.000000	3.940316
5240.000000	3.945734
5238.000000	3.950655
5236.000000	3.956625
5234.000000	3.962448
5232.000000	3.966121
5230.000000	3.968390
5228.000000	3.972134
5226.000000	3.978196
5224.000000	3.984343
5222.000000	3.990830
5220.000000	3.997475
5218.000000	4.003537
5216.000000	4.009546
5214.000000	4.015474
5212.000000	4.020335
5210.000000	4.022664
5208.000000	4.024948
5206.000000	4.030132
5204.000000	4.037617
5202.000000	4.045687
5200.000000	4.051212
5198.000000	4.055225
5196.000000	4.059892
5194.000000	4.066733
5192.000000	4.072902
5190.000000	4.078220
5188.000000	4.082915
5186.000000	4.088525
5184.000000	4.093301
5182.000000	4.098253
5180.000000	4.103858
5178.000000	4.109512
5176.000000	4.115041
5174.000000	4.120505
5172.000000	4.126180
5170.000000	4.132435
5168.000000	4.137646
5166.000000	4.141763
5164.000000	4.145822
5162.000000	4.151574
5160.000000	4.157551
5158.000000	4.161788
5156.000000	4.166234
5154.000000	4.172768
5152.000000	4.180270
5150.000000	4.186328
5148.000000	4.190334
5146.000000	4.194427
5144.000000	4.199464
5142.000000	4.204984
5140.000000	4.211148
5138.000000	4.216610
5136.000000	4.220936
5134.000000	4.225701
5132.000000	4.231883
5130.000000	4.237696
5128.000000	4.242485
5126.000000	4.247147
5124.000000	4.252634
5122.000000	4.258614
5120.000000	4.265138
5118.000000	4.270846
5116.000000	4.274269
5114.000000	4.277896
5112.000000	4.283204
5110.000000	4.290157
5108.000000	4.295359
5106.000000	4.300092
5104.000000	4.304936
5102.000000	4.310542
5100.000000	4.317017
5098.000000	4.322725
5096.000000	4.327773
5094.000000	4.333605
5092.000000	4.340380
5090.000000	4.346082
5088.000000	4.350588
5086.000000	4.355815
5084.000000	4.362307
5082.000000	4.370490
5080.000000	4.378530
5078.000000	4.384362
5076.000000	4.388430
5074.000000	4.392219
5072.000000	4.396896
5070.000000	4.405156
5068.000000	4.414916
5066.000000	4.421122
5064.000000	4.424725
5062.000000	4.429738
5060.000000	4.436821
5058.000000	4.442922
5056.000000	4.449275
5054.000000	4.456208
5052.000000	4.462134
5050.000000	4.467728
5048.000000	4.473239
5046.000000	4.479150
5044.000000	4.484382
5042.000000	4.489588
5040.000000	4.495031
5038.000000	4.501200
5036.000000	4.509299
5034.000000	4.517355
5032.000000	4.523164
5030.000000	4.527140
5028.000000	4.531877
5026.000000	4.538478
5024.000000	4.544227
5022.000000	4.549048
5020.000000	4.554393
5018.000000	4.561181
5016.000000	4.568586
5014.000000	4.576854
5012.000000	4.584513
5010.000000	4.590924
5008.000000	4.597212
5006.000000	4.603918
5004.000000	4.610140
5002.000000	4.615888
5000.000000	4.622189
4998.000000	4.628586
4996.000000	4.634698
4994.000000	4.640938
4992.000000	4.647222
4990.000000	4.654142
4988.000000	4.661354
4986.000000	4.668341
4984.000000	4.674821
4982.000000	4.681510
4980.000000	4.688632
4978.000000	4.694902
4976.000000	4.700770
4974.000000	4.707589
4972.000000	4.714920
4970.000000	4.722365
4968.000000	4.729330
4966.000000	4.736622
4964.000000	4.743459
4962.000000	4.750721
4960.000000	4.758100
4958.000000	4.765088
4956.000000	4.771079
4954.000000	4.776760
4952.000000	4.783134
4950.000000	4.790537
4948.000000	4.798538
4946.000000	4.806163
4944.000000	4.812802
4942.000000	4.818514
4940.000000	4.823401
4938.000000	4.829009
4936.000000	4.836237
4934.000000	4.844178
4932.000000	4.850691
4930.000000	4.856462
4928.000000	4.862881
4926.000000	4.870357
4924.000000	4.876734
4922.000000	4.882264
4920.000000	4.889875
4918.000000	4.899436
4916.000000	4.908267
4914.000000	4.914716
4912.000000	4.920308
4910.000000	4.927109
4908.000000	4.933801
4906.000000	4.939601
4904.000000	4.946590
4902.000000	4.955672
4900.000000	4.964678
4898.000000	4.973265
4896.000000	4.981660
4894.000000	4.988410
4892.000000	4.993740
4890.000000	4.999605
4888.000000	5.006248
4886.000000	5.012773
4884.000000	5.020482
4882.000000	5.029225
4880.000000	5.037779
4878.000000	5.044872
4876.000000	5.052206
4874.000000	5.059458
4872.000000	5.066104
4870.000000	5.074194
4868.000000	5.083336
4866.000000	5.091610
4864.000000	5.098670
4862.000000	5.106908
4860.000000	5.115026
4858.000000	5.122624
4856.000000	5.129600
4854.000000	5.135966
4852.000000	5.141139
4850.000000	5.146766
4848.000000	5.153968
4846.000000	5.161833
4844.000000	5.169065
4842.000000	5.176957
4840.000000	5.186534
4838.000000	5.196539
4836.000000	5.204135
4834.000000	5.209435
4832.000000	5.214830
4830.000000	5.221659
4828.000000	5.230127
4826.000000	5.239446
4824.000000	5.248377
4822.000000	5.255295
4820.000000	5.260906
4818.000000	5.267604
4816.000000	5.275408
4814.000000	5.283358
4812.000000	5.291578
4810.000000	5.301098
4808.000000	5.311177
4806.000000	5.320439
4804.000000	5.328774
4802.000000	5.337202
4800.000000	5.346198
4798.000000	5.355457
4796.000000	5.363181
4794.000000	5.370202
4792.000000	5.378646
4790.000000	5.388337
4788.000000	5.396804
4786.000000	5.402724
4784.000000	5.408994
4782.000000	5.417247
4780.000000	5.427470
4778.000000	5.437149
4776.000000	5.445690
4774.000000	5.454368
4772.000000	5.462768
4770.000000	5.471010
4768.000000	5.480131
4766.000000	5.490118
4764.000000	5.498375
4762.000000	5.506299
4760.000000	5.514228
4758.000000	5.521442
4756.000000	5.528785
4754.000000	5.537320
4752.000000	5.545264
4750.000000	5.552787
4748.000000	5.560258
4746.000000	5.568353
4744.000000	5.577321
4742.000000	5.586941
4740.000000	5.595653
4738.000000	5.604180
4736.000000	5.611612
4734.000000	5.618912
4732.000000	5.627292
4730.000000	5.637300
4728.000000	5.646920
4726.000000	5.655280
4724.000000	5.663150
4722.000000	5.670548
4720.000000	5.677519
4718.000000	5.685259
4716.000000	5.695337
4714.000000	5.706714
4712.000000	5.715773
4710.000000	5.722818
4708.000000	5.730274
4706.000000	5.738543
4704.000000	5.746662
4702.000000	5.755860
4700.000000	5.765288
4698.000000	5.773420
4696.000000	5.781124
4694.000000	5.790538
4692.000000	5.800641
4690.000000	5.808491
4688.000000	5.814200
4686.000000	5.821172
4684.000000	5.829890
4682.000000	5.839875
4680.000000	5.850292
4678.000000	5.860002
4676.000000	5.868059
4674.000000	5.875347
4672.000000	5.882848
4670.000000	5.890941
4668.000000	5.898773
4666.000000	5.906470
4664.000000	5.914907
4662.000000	5.923350
4660.000000	5.931591
4658.000000	5.940348
4656.000000	5.949733
4654.000000	5.957622
4652.000000	5.965033
4650.000000	5.972619
4648.000000	5.979758
4646.000000	5.985833
4644.000000	5.993119
4642.000000	6.002012
4640.000000	6.011807
4638.000000	6.020326
4636.000000	6.027019
4634.000000	6.033149
4632.000000	6.039759
4630.000000	6.047338
4628.000000	6.056579
4626.000000	6.066658
4624.000000	6.074723
4622.000000	6.081818
4620.000000	6.089414
4618.000000	6.096009
4616.000000	6.102384
4614.000000	6.111292
4612.000000	6.120626
4610.000000	6.128826
4608.000000	6.136861
4606.000000	6.145161
4604.000000	6.153656
4602.000000	6.162047
4600.000000	6.168960
4598.000000	6.176983
4596.000000	6.187476
4594.000000	6.198164
4592.000000	6.206917
4590.000000	6.215645
4588.000000	6.224835
4586.000000	6.232809
4584.000000	6.239277
4582.000000	6.246757
4580.000000	6.255231
4578.000000	6.263343
4576.000000	6.271126
4574.000000	6.279708
4572.000000	6.288455
4570.000000	6.296082
4568.000000	6.302773
4566.000000	6.310936
4564.000000	6.319721
4562.000000	6.327447
4560.000000	6.335080
4558.000000	6.343248
4556.000000	6.351005
4554.000000	6.358247
4552.000000	6.365139
4550.000000	6.372009
4548.000000	6.380813
4546.000000	6.390800
4544.000000	6.400233
4542.000000	6.408251
4540.000000	6.414855
4538.000000	6.421392
4536.000000	6.429876
4534.000000	6.437904
4532.000000	6.444494
4530.000000	6.451400
4528.000000	6.459196
4526.000000	6.466652
4524.000000	6.473671
4522.000000	6.480227
4520.000000	6.487758
4518.000000	6.496209
4516.000000	6.506054
4514.000000	6.515732
4512.000000	6.523469
4510.000000	6.531171
4508.000000	6.540559
4506.000000	6.549455
4504.000000	6.557273
4502.000000	6.564902
4500.000000	6.573086
4498.000000	6.581357
4496.000000	6.589485
4494.000000	6.598011
4492.000000	6.607292
4490.000000	6.616486
4488.000000	6.623413
4486.000000	6.628737
4484.000000	6.636810
4482.000000	6.648395
4480.000000	6.658935
4478.000000	6.666121
4476.000000	6.670684
4474.000000	6.677105
4472.000000	6.685971
4470.000000	6.695046
4468.000000	6.704409
4466.000000	6.713563
4464.000000	6.720446
4462.000000	6.727085
4460.000000	6.733794
4458.000000	6.739609
4456.000000	6.746747
4454.000000	6.755620
4452.000000	6.763522
4450.000000	6.770659
4448.000000	6.778483
4446.000000	6.786222
4444.000000	6.793176
4442.000000	6.800235
4440.000000	6.808030
4438.000000	6.815708
4436.000000	6.822508
4434.000000	6.829643
4432.000000	6.838130
4430.000000	6.846575
4428.000000	6.853609
4426.000000	6.860503
4424.000000	6.867892
4422.000000	6.874767
4420.000000	6.882485
4418.000000	6.892556
4416.000000	6.901958
4414.000000	6.909022
4412.000000	6.915616
4410.000000	6.921875
4408.000000	6.928327
4406.000000	6.936741
4404.000000	6.945270
4402.000000	6.952715
4400.000000	6.960822
4398.000000	6.968820
4396.000000	6.976748
4394.000000	6.984916
4392.000000	6.991918
4390.000000	6.999086
4388.000000	7.008784
4386.000000	7.018145
4384.000000	7.025817
4382.000000	7.032256
4380.000000	7.038264
4378.000000	7.044037
4376.000000	7.050272
4374.000000	7.056958
4372.000000	7.063413
4370.000000	7.069472
4368.000000	7.077241
4366.000000	7.085469
4364.000000	7.092189
4362.000000	7.097792
4360.000000	7.102706
4358.000000	7.107853
4356.000000	7.115313
4354.000000	7.124468
4352.000000	7.133097
4350.000000	7.141042
4348.000000	7.149291
4346.000000	7.158095
4344.000000	7.164875
4342.000000	7.168680
4340.000000	7.173885
4338.000000	7.183453
4336.000000	7.192386
4334.000000	7.198391
4332.000000	7.204961
4330.000000	7.212186
4328.000000	7.218325
4326.000000	7.225107
4324.000000	7.232296
4322.000000	7.239253
4320.000000	7.247214
4318.000000	7.256717
4316.000000	7.266353
4314.000000	7.274293
4312.000000	7.280860
4310.000000	7.288350
4308.000000	7.295297
4306.000000	7.301268
4304.000000	7.309027
4302.000000	7.318090
4300.000000	7.325367
4298.000000	7.331503
4296.000000	7.339692
4294.000000	7.350467
4292.000000	7.359812
4290.000000	7.365407
4288.000000	7.369789
4286.000000	7.375655
4284.000000	7.382340
4282.000000	7.389151
4280.000000	7.397106
4278.000000	7.405985
4276.000000	7.413574
4274.000000	7.419612
4272.000000	7.424654
4270.000000	7.429360
4268.000000	7.435567
4266.000000	7.443348
4264.000000	7.450743
4262.000000	7.457988
4260.000000	7.465269
4258.000000	7.472352
4256.000000	7.479097
4254.000000	7.484993
4252.000000	7.491518
4250.000000	7.499167
4248.000000	7.506455
4246.000000	7.514455
4244.000000	7.523113
4242.000000	7.530273
4240.000000	7.536973
4238.000000	7.544412
4236.000000	7.552197
4234.000000	7.559707
4232.000000	7.567703
4230.000000	7.576904
4228.000000	7.584681
4226.000000	7.590187
4224.000000	7.597225
4222.000000	7.605784
4220.000000	7.613656
4218.000000	7.620909
4216.000000	7.628151
4214.000000	7.636095
