PE IR       SUBTECH     SPECTRUM    ASCII       PEDS        4.00        
   -1
TE110A_031_105K_BG.ASC
20/05/14
12:44:03.00
20/05/14
12:44:03.00
Administrator
TE110A.Thursday, May 14 2020, 014.
1000.000000
#HDR
-1
-1
#GR
cm-1
EGY
1.0
0.0
6000.000000
-2.000000
2501
8
105.483485
11.027654
#DATA
6000.000000	16.680468
5998.000000	16.713394
5996.000000	16.746913
5994.000000	16.780331
5992.000000	16.811834
5990.000000	16.843819
5988.000000	16.875975
5986.000000	16.908835
5984.000000	16.942839
5982.000000	16.976528
5980.000000	17.009719
5978.000000	17.042266
5976.000000	17.074671
5974.000000	17.109097
5972.000000	17.143499
5970.000000	17.178333
5968.000000	17.212652
5966.000000	17.247144
5964.000000	17.281410
5962.000000	17.315323
5960.000000	17.349413
5958.000000	17.383633
5956.000000	17.418132
5954.000000	17.453015
5952.000000	17.487263
5950.000000	17.521055
5948.000000	17.555607
5946.000000	17.590236
5944.000000	17.623849
5942.000000	17.656968
5940.000000	17.690050
5938.000000	17.723968
5936.000000	17.757488
5934.000000	17.790991
5932.000000	17.824751
5930.000000	17.859281
5928.000000	17.894220
5926.000000	17.929415
5924.000000	17.964319
5922.000000	17.999103
5920.000000	18.034095
5918.000000	18.069710
5916.000000	18.105455
5914.000000	18.141255
5912.000000	18.177930
5910.000000	18.215338
5908.000000	18.252585
5906.000000	18.289861
5904.000000	18.326820
5902.000000	18.363632
5900.000000	18.400253
5898.000000	18.437432
5896.000000	18.474185
5894.000000	18.510394
5892.000000	18.546535
5890.000000	18.582726
5888.000000	18.618344
5886.000000	18.653752
5884.000000	18.688129
5882.000000	18.724101
5880.000000	18.759937
5878.000000	18.796250
5876.000000	18.832385
5874.000000	18.868404
5872.000000	18.904578
5870.000000	18.941859
5868.000000	18.980076
5866.000000	19.018082
5864.000000	19.055160
5862.000000	19.092317
5860.000000	19.129204
5858.000000	19.166913
5856.000000	19.204837
5854.000000	19.242846
5852.000000	19.281994
5850.000000	19.320166
5848.000000	19.358827
5846.000000	19.399024
5844.000000	19.440607
5842.000000	19.482824
5840.000000	19.523471
5838.000000	19.563543
5836.000000	19.605074
5834.000000	19.648039
5832.000000	19.689784
5830.000000	19.730929
5828.000000	19.771248
5826.000000	19.812674
5824.000000	19.853781
5822.000000	19.894069
5820.000000	19.934821
5818.000000	19.975155
5816.000000	20.015444
5814.000000	20.056127
5812.000000	20.097475
5810.000000	20.138967
5808.000000	20.179017
5806.000000	20.218543
5804.000000	20.259071
5802.000000	20.300668
5800.000000	20.341885
5798.000000	20.383512
5796.000000	20.424019
5794.000000	20.464708
5792.000000	20.505362
5790.000000	20.546569
5788.000000	20.587814
5786.000000	20.628597
5784.000000	20.669232
5782.000000	20.711021
5780.000000	20.752961
5778.000000	20.795488
5776.000000	20.837997
5774.000000	20.880145
5772.000000	20.922170
5770.000000	20.963893
5768.000000	21.005378
5766.000000	21.046969
5764.000000	21.088750
5762.000000	21.130825
5760.000000	21.172664
5758.000000	21.214079
5756.000000	21.255632
5754.000000	21.297569
5752.000000	21.339427
5750.000000	21.380489
5748.000000	21.421950
5746.000000	21.463588
5744.000000	21.505675
5742.000000	21.547918
5740.000000	21.589598
5738.000000	21.631129
5736.000000	21.671443
5734.000000	21.711258
5732.000000	21.750179
5730.000000	21.789538
5728.000000	21.829938
5726.000000	21.871846
5724.000000	21.913383
5722.000000	21.954632
5720.000000	21.996816
5718.000000	22.039866
5716.000000	22.082736
5714.000000	22.125806
5712.000000	22.169971
5710.000000	22.214686
5708.000000	22.258349
5706.000000	22.302203
5704.000000	22.346444
5702.000000	22.391263
5700.000000	22.435927
5698.000000	22.480362
5696.000000	22.525262
5694.000000	22.570429
5692.000000	22.615856
5690.000000	22.660708
5688.000000	22.705047
5686.000000	22.750097
5684.000000	22.796581
5682.000000	22.843559
5680.000000	22.888721
5678.000000	22.933165
5676.000000	22.976544
5674.000000	23.021303
5672.000000	23.066949
5670.000000	23.112720
5668.000000	23.158354
5666.000000	23.203798
5664.000000	23.249688
5662.000000	23.295342
5660.000000	23.340419
5658.000000	23.386117
5656.000000	23.431167
5654.000000	23.476265
5652.000000	23.521854
5650.000000	23.567750
5648.000000	23.614238
5646.000000	23.660298
5644.000000	23.706000
5642.000000	23.750463
5640.000000	23.794599
5638.000000	23.840348
5636.000000	23.886577
5634.000000	23.932811
5632.000000	23.977944
5630.000000	24.023808
5628.000000	24.069232
5626.000000	24.113947
5624.000000	24.158423
5622.000000	24.204276
5620.000000	24.251100
5618.000000	24.297338
5616.000000	24.341632
5614.000000	24.385920
5612.000000	24.431118
5610.000000	24.477099
5608.000000	24.522360
5606.000000	24.567732
5604.000000	24.613902
5602.000000	24.660621
5600.000000	24.706678
5598.000000	24.751306
5596.000000	24.796784
5594.000000	24.843808
5592.000000	24.891333
5590.000000	24.938926
5588.000000	24.985240
5586.000000	25.030839
5584.000000	25.077145
5582.000000	25.123786
5580.000000	25.170941
5578.000000	25.217997
5576.000000	25.266048
5574.000000	25.314440
5572.000000	25.361576
5570.000000	25.408674
5568.000000	25.456843
5566.000000	25.505761
5564.000000	25.554415
5562.000000	25.602487
5560.000000	25.649940
5558.000000	25.697454
5556.000000	25.743748
5554.000000	25.789577
5552.000000	25.835584
5550.000000	25.883325
5548.000000	25.931578
5546.000000	25.980297
5544.000000	26.028560
5542.000000	26.076169
5540.000000	26.122213
5538.000000	26.168866
5536.000000	26.217049
5534.000000	26.265448
5532.000000	26.313110
5530.000000	26.360544
5528.000000	26.409013
5526.000000	26.455296
5524.000000	26.499093
5522.000000	26.543579
5520.000000	26.591366
5518.000000	26.641634
5516.000000	26.691552
5514.000000	26.739896
5512.000000	26.784866
5510.000000	26.827855
5508.000000	26.873633
5506.000000	26.924022
5504.000000	26.975018
5502.000000	27.023361
5500.000000	27.071073
5498.000000	27.117268
5496.000000	27.157705
5494.000000	27.196795
5492.000000	27.241428
5490.000000	27.294849
5488.000000	27.351411
5486.000000	27.408131
5484.000000	27.464282
5482.000000	27.515889
5480.000000	27.557002
5478.000000	27.590254
5476.000000	27.629984
5474.000000	27.683786
5472.000000	27.743043
5470.000000	27.796166
5468.000000	27.843911
5466.000000	27.890387
5464.000000	27.934294
5462.000000	27.979186
5460.000000	28.029883
5458.000000	28.087051
5456.000000	28.144784
5454.000000	28.196461
5452.000000	28.238822
5450.000000	28.273267
5448.000000	28.308647
5446.000000	28.352623
5444.000000	28.401583
5442.000000	28.456895
5440.000000	28.512431
5438.000000	28.561994
5436.000000	28.607902
5434.000000	28.652536
5432.000000	28.695804
5430.000000	28.740629
5428.000000	28.796519
5426.000000	28.864664
5424.000000	28.931062
5422.000000	28.988613
5420.000000	29.037387
5418.000000	29.069355
5416.000000	29.089741
5414.000000	29.117051
5412.000000	29.164950
5410.000000	29.232527
5408.000000	29.303665
5406.000000	29.368470
5404.000000	29.424964
5402.000000	29.477352
5400.000000	29.522898
5398.000000	29.556074
5396.000000	29.585581
5394.000000	29.632339
5392.000000	29.696801
5390.000000	29.758898
5388.000000	29.804963
5386.000000	29.850025
5384.000000	29.907309
5382.000000	29.965769
5380.000000	30.006347
5378.000000	30.040517
5376.000000	30.088464
5374.000000	30.155375
5372.000000	30.224724
5370.000000	30.286302
5368.000000	30.337076
5366.000000	30.381687
5364.000000	30.428723
5362.000000	30.483008
5360.000000	30.538183
5358.000000	30.579371
5356.000000	30.607375
5354.000000	30.642763
5352.000000	30.696326
5350.000000	30.755172
5348.000000	30.793958
5346.000000	30.827573
5344.000000	30.874884
5342.000000	30.927043
5340.000000	30.973834
5338.000000	31.027246
5336.000000	31.096503
5334.000000	31.166052
5332.000000	31.220619
5330.000000	31.266097
5328.000000	31.314836
5326.000000	31.373110
5324.000000	31.438317
5322.000000	31.497952
5320.000000	31.548349
5318.000000	31.596069
5316.000000	31.646463
5314.000000	31.699600
5312.000000	31.747303
5310.000000	31.788535
5308.000000	31.831938
5306.000000	31.885296
5304.000000	31.943918
5302.000000	31.999139
5300.000000	32.052336
5298.000000	32.106716
5296.000000	32.159470
5294.000000	32.201340
5292.000000	32.239415
5290.000000	32.286617
5288.000000	32.343095
5286.000000	32.401116
5284.000000	32.455850
5282.000000	32.511707
5280.000000	32.568461
5278.000000	32.625630
5276.000000	32.681670
5274.000000	32.733212
5272.000000	32.780004
5270.000000	32.823851
5268.000000	32.860267
5266.000000	32.892759
5264.000000	32.936136
5262.000000	33.000107
5260.000000	33.070420
5258.000000	33.125779
5256.000000	33.172062
5254.000000	33.223422
5252.000000	33.273329
5250.000000	33.314031
5248.000000	33.353709
5246.000000	33.408155
5244.000000	33.477699
5242.000000	33.548166
5240.000000	33.611627
5238.000000	33.665383
5236.000000	33.714664
5234.000000	33.760457
5232.000000	33.806638
5230.000000	33.852148
5228.000000	33.893416
5226.000000	33.938765
5224.000000	33.997749
5222.000000	34.063900
5220.000000	34.122744
5218.000000	34.177114
5216.000000	34.233754
5214.000000	34.288096
5212.000000	34.329699
5210.000000	34.357380
5208.000000	34.389182
5206.000000	34.446149
5204.000000	34.523150
5202.000000	34.596246
5200.000000	34.650510
5198.000000	34.699009
5196.000000	34.754119
5194.000000	34.814609
5192.000000	34.871068
5190.000000	34.921927
5188.000000	34.969828
5186.000000	35.020879
5184.000000	35.076954
5182.000000	35.136739
5180.000000	35.194870
5178.000000	35.251609
5176.000000	35.307261
5174.000000	35.360076
5172.000000	35.412789
5170.000000	35.468196
5168.000000	35.523706
5166.000000	35.576374
5164.000000	35.628307
5162.000000	35.682707
5160.000000	35.737532
5158.000000	35.791779
5156.000000	35.846715
5154.000000	35.903170
5152.000000	35.959712
5150.000000	36.015616
5148.000000	36.070786
5146.000000	36.124791
5144.000000	36.176832
5142.000000	36.229237
5140.000000	36.283265
5138.000000	36.338920
5136.000000	36.394210
5134.000000	36.449132
5132.000000	36.504164
5130.000000	36.558430
5128.000000	36.611769
5126.000000	36.666014
5124.000000	36.721142
5122.000000	36.775697
5120.000000	36.828880
5118.000000	36.882902
5116.000000	36.937562
5114.000000	36.992535
5112.000000	37.047115
5110.000000	37.101653
5108.000000	37.156362
5106.000000	37.211872
5104.000000	37.267322
5102.000000	37.322634
5100.000000	37.378168
5098.000000	37.434646
5096.000000	37.491164
5094.000000	37.547629
5092.000000	37.604214
5090.000000	37.660934
5088.000000	37.716763
5086.000000	37.772427
5084.000000	37.828468
5082.000000	37.885590
5080.000000	37.942919
5078.000000	38.000323
5076.000000	38.056647
5074.000000	38.112497
5072.000000	38.169167
5070.000000	38.226563
5068.000000	38.283720
5066.000000	38.340989
5064.000000	38.398076
5062.000000	38.454716
5060.000000	38.510088
5058.000000	38.565735
5056.000000	38.620953
5054.000000	38.676895
5052.000000	38.732882
5050.000000	38.789325
5048.000000	38.845521
5046.000000	38.902247
5044.000000	38.958639
5042.000000	39.014528
5040.000000	39.069941
5038.000000	39.125425
5036.000000	39.180978
5034.000000	39.236896
5032.000000	39.293296
5030.000000	39.350187
5028.000000	39.406423
5026.000000	39.461341
5024.000000	39.515731
5022.000000	39.571697
5020.000000	39.629016
5018.000000	39.687010
5016.000000	39.743613
5014.000000	39.799529
5012.000000	39.856328
5010.000000	39.914360
5008.000000	39.970960
5006.000000	40.027272
5004.000000	40.084817
5002.000000	40.142898
5000.000000	40.200589
4998.000000	40.259561
4996.000000	40.318135
4994.000000	40.375091
4992.000000	40.431858
4990.000000	40.490354
4988.000000	40.549252
4986.000000	40.608557
4984.000000	40.667514
4982.000000	40.725533
4980.000000	40.782871
4978.000000	40.840660
4976.000000	40.898652
4974.000000	40.956472
4972.000000	41.013647
4970.000000	41.071258
4968.000000	41.129134
4966.000000	41.187378
4964.000000	41.244850
4962.000000	41.303066
4960.000000	41.360759
4958.000000	41.417070
4956.000000	41.472602
4954.000000	41.529963
4952.000000	41.588264
4950.000000	41.646231
4948.000000	41.703336
4946.000000	41.760458
4944.000000	41.816358
4942.000000	41.872037
4940.000000	41.928531
4938.000000	41.985922
4936.000000	42.042634
4934.000000	42.099299
4932.000000	42.156883
4930.000000	42.215404
4928.000000	42.272346
4926.000000	42.328039
4924.000000	42.384222
4922.000000	42.442183
4920.000000	42.499466
4918.000000	42.556435
4916.000000	42.613911
4914.000000	42.672124
4912.000000	42.729624
4910.000000	42.787312
4908.000000	42.845211
4906.000000	42.904439
4904.000000	42.964069
4902.000000	43.023718
4900.000000	43.082153
4898.000000	43.140444
4896.000000	43.199193
4894.000000	43.259015
4892.000000	43.319127
4890.000000	43.378977
4888.000000	43.438689
4886.000000	43.498642
4884.000000	43.557858
4882.000000	43.616857
4880.000000	43.676083
4878.000000	43.735833
4876.000000	43.793989
4874.000000	43.851703
4872.000000	43.910171
4870.000000	43.969810
4868.000000	44.028693
4866.000000	44.087285
4864.000000	44.145498
4862.000000	44.203227
4860.000000	44.260478
4858.000000	44.319101
4856.000000	44.378093
4854.000000	44.437282
4852.000000	44.495880
4850.000000	44.553785
4848.000000	44.609952
4846.000000	44.666734
4844.000000	44.725511
4842.000000	44.785621
4840.000000	44.843728
4838.000000	44.900267
4836.000000	44.956863
4834.000000	45.014816
4832.000000	45.072018
4830.000000	45.129336
4828.000000	45.186255
4826.000000	45.243890
4824.000000	45.301975
4822.000000	45.361361
4820.000000	45.420606
4818.000000	45.479895
4816.000000	45.538963
4814.000000	45.597460
4812.000000	45.655197
4810.000000	45.714118
4808.000000	45.774757
4806.000000	45.835810
4804.000000	45.895800
4802.000000	45.955860
4800.000000	46.015696
4798.000000	46.076390
4796.000000	46.137578
4794.000000	46.198869
4792.000000	46.258676
4790.000000	46.318590
4788.000000	46.378647
4786.000000	46.439377
4784.000000	46.500015
4782.000000	46.560870
4780.000000	46.620599
4778.000000	46.679826
4776.000000	46.738790
4774.000000	46.799454
4772.000000	46.860479
4770.000000	46.921251
4768.000000	46.980570
4766.000000	47.039489
4764.000000	47.097165
4762.000000	47.155085
4760.000000	47.213816
4758.000000	47.273917
4756.000000	47.333546
4754.000000	47.392005
4752.000000	47.448990
4750.000000	47.506691
4748.000000	47.565403
4746.000000	47.624350
4744.000000	47.682411
4742.000000	47.740749
4740.000000	47.798434
4738.000000	47.855550
4736.000000	47.912888
4734.000000	47.971612
4732.000000	48.029945
4730.000000	48.088153
4728.000000	48.146531
4726.000000	48.205461
4724.000000	48.264634
4722.000000	48.325748
4720.000000	48.386706
4718.000000	48.447340
4716.000000	48.508523
4714.000000	48.571248
4712.000000	48.632787
4710.000000	48.693980
4708.000000	48.755790
4706.000000	48.819525
4704.000000	48.883283
4702.000000	48.946886
4700.000000	49.010241
4698.000000	49.074180
4696.000000	49.136787
4694.000000	49.198321
4692.000000	49.258537
4690.000000	49.319159
4688.000000	49.380154
4686.000000	49.442584
4684.000000	49.504740
4682.000000	49.566243
4680.000000	49.626860
4678.000000	49.687874
4676.000000	49.748751
4674.000000	49.810960
4672.000000	49.873276
4670.000000	49.934771
4668.000000	49.995380
4666.000000	50.056862
4664.000000	50.117565
4662.000000	50.178976
4660.000000	50.241222
4658.000000	50.303689
4656.000000	50.363610
4654.000000	50.423068
4652.000000	50.483734
4650.000000	50.546189
4648.000000	50.607249
4646.000000	50.667207
4644.000000	50.727664
4642.000000	50.790204
4640.000000	50.852229
4638.000000	50.913108
4636.000000	50.973023
4634.000000	51.034126
4632.000000	51.095602
4630.000000	51.157595
4628.000000	51.218649
4626.000000	51.279733
4624.000000	51.340839
4622.000000	51.403068
4620.000000	51.465205
4618.000000	51.527584
4616.000000	51.590233
4614.000000	51.654349
4612.000000	51.719097
4610.000000	51.783914
4608.000000	51.847997
4606.000000	51.911906
4604.000000	51.976503
4602.000000	52.042830
4600.000000	52.108284
4598.000000	52.173041
4596.000000	52.237996
4594.000000	52.303268
4592.000000	52.367464
4590.000000	52.432644
4588.000000	52.498026
4586.000000	52.563407
4584.000000	52.627747
4582.000000	52.691770
4580.000000	52.755905
4578.000000	52.820036
4576.000000	52.883246
4574.000000	52.947391
4572.000000	53.012102
4570.000000	53.075061
4568.000000	53.136999
4566.000000	53.200587
4564.000000	53.264365
4562.000000	53.327669
4560.000000	53.391024
4558.000000	53.454729
4556.000000	53.517449
4554.000000	53.580317
4552.000000	53.642206
4550.000000	53.704199
4548.000000	53.766460
4546.000000	53.829303
4544.000000	53.891502
4542.000000	53.955030
4540.000000	54.018387
4538.000000	54.081370
4536.000000	54.143629
4534.000000	54.206317
4532.000000	54.268246
4530.000000	54.331812
4528.000000	54.396518
4526.000000	54.461117
4524.000000	54.524540
4522.000000	54.588410
4520.000000	54.651496
4518.000000	54.715251
4516.000000	54.780534
4514.000000	54.846183
4512.000000	54.909932
4510.000000	54.974272
4508.000000	55.039862
4506.000000	55.106286
4504.000000	55.172544
4502.000000	55.238481
4500.000000	55.302968
4498.000000	55.368587
4496.000000	55.435027
4494.000000	55.501539
4492.000000	55.566862
4490.000000	55.631798
4488.000000	55.695957
4486.000000	55.761125
4484.000000	55.826663
4482.000000	55.891939
4480.000000	55.956147
4478.000000	56.020715
4476.000000	56.084564
4474.000000	56.148207
4472.000000	56.211208
4470.000000	56.274383
4468.000000	56.337268
4466.000000	56.400689
4464.000000	56.462848
4462.000000	56.524788
4460.000000	56.586781
4458.000000	56.649046
4456.000000	56.710508
4454.000000	56.773137
4452.000000	56.835533
4450.000000	56.897588
4448.000000	56.959711
4446.000000	57.022689
4444.000000	57.085036
4442.000000	57.147245
4440.000000	57.208960
4438.000000	57.271418
4436.000000	57.334380
4434.000000	57.398355
4432.000000	57.461557
4430.000000	57.524451
4428.000000	57.587247
4426.000000	57.650917
4424.000000	57.714029
4422.000000	57.778380
4420.000000	57.843259
4418.000000	57.907464
4416.000000	57.970292
4414.000000	58.034345
4412.000000	58.098211
4410.000000	58.163324
4408.000000	58.229231
4406.000000	58.294490
4404.000000	58.357934
4402.000000	58.421835
4400.000000	58.485373
4398.000000	58.548864
4396.000000	58.611544
4394.000000	58.675194
4392.000000	58.739221
4390.000000	58.802903
4388.000000	58.864952
4386.000000	58.927014
4384.000000	58.989284
4382.000000	59.051618
4380.000000	59.111781
4378.000000	59.171392
4376.000000	59.231094
4374.000000	59.291892
4372.000000	59.352909
4370.000000	59.414126
4368.000000	59.474422
4366.000000	59.534925
4364.000000	59.594936
4362.000000	59.656049
4360.000000	59.717643
4358.000000	59.779679
4356.000000	59.841111
4354.000000	59.903919
4352.000000	59.967176
4350.000000	60.030744
4348.000000	60.094392
4346.000000	60.158907
4344.000000	60.221501
4342.000000	60.282984
4340.000000	60.345090
4338.000000	60.409508
4336.000000	60.473260
4334.000000	60.536636
4332.000000	60.600712
4330.000000	60.666019
4328.000000	60.730698
4326.000000	60.795671
4324.000000	60.861146
4322.000000	60.928442
4320.000000	60.995812
4318.000000	61.063259
4316.000000	61.131301
4314.000000	61.200116
4312.000000	61.266671
4310.000000	61.333214
4308.000000	61.400725
4306.000000	61.467696
4304.000000	61.532919
4302.000000	61.599312
4300.000000	61.665621
4298.000000	61.731456
4296.000000	61.796624
4294.000000	61.862143
4292.000000	61.926143
