PE IR       SUBTECH     SPECTRUM    ASCII       PEDS        4.00        
   -1
TE110A_092_80K_AFTER_150K_BG.ASC
20/05/14
16:39:57.00
20/05/14
16:39:57.00
Administrator
TE110A.Thursday, May 14 2020, 002.
1000.000000
#HDR
-1
-1
#GR
cm-1
EGY
1.0
0.0
6000.000000
-2.000000
2501
8
105.188020
11.042976
#DATA
6000.000000	16.438641
5998.000000	16.471716
5996.000000	16.504740
5994.000000	16.536962
5992.000000	16.567773
5990.000000	16.599849
5988.000000	16.631799
5986.000000	16.664885
5984.000000	16.697510
5982.000000	16.729916
5980.000000	16.762774
5978.000000	16.796158
5976.000000	16.829069
5974.000000	16.862804
5972.000000	16.895758
5970.000000	16.928694
5968.000000	16.960848
5966.000000	16.994072
5964.000000	17.027251
5962.000000	17.061774
5960.000000	17.095786
5958.000000	17.129891
5956.000000	17.162908
5954.000000	17.194845
5952.000000	17.227060
5950.000000	17.261127
5948.000000	17.294854
5946.000000	17.327926
5944.000000	17.360299
5942.000000	17.393239
5940.000000	17.426040
5938.000000	17.460408
5936.000000	17.494168
5934.000000	17.527854
5932.000000	17.559908
5930.000000	17.592751
5928.000000	17.626422
5926.000000	17.660952
5924.000000	17.694137
5922.000000	17.727612
5920.000000	17.761913
5918.000000	17.796960
5916.000000	17.832754
5914.000000	17.869713
5912.000000	17.906274
5910.000000	17.942085
5908.000000	17.976691
5906.000000	18.012034
5904.000000	18.047751
5902.000000	18.083579
5900.000000	18.118943
5898.000000	18.155217
5896.000000	18.192035
5894.000000	18.228103
5892.000000	18.262650
5890.000000	18.297654
5888.000000	18.332610
5886.000000	18.369060
5884.000000	18.404518
5882.000000	18.440002
5880.000000	18.474352
5878.000000	18.509749
5876.000000	18.545359
5874.000000	18.580525
5872.000000	18.615635
5870.000000	18.651186
5868.000000	18.687427
5866.000000	18.724103
5864.000000	18.759492
5862.000000	18.795639
5860.000000	18.830979
5858.000000	18.867717
5856.000000	18.905442
5854.000000	18.943844
5852.000000	18.981295
5850.000000	19.019105
5848.000000	19.057415
5846.000000	19.097387
5844.000000	19.137084
5842.000000	19.177145
5840.000000	19.216819
5838.000000	19.257398
5836.000000	19.297183
5834.000000	19.337244
5832.000000	19.377408
5830.000000	19.419336
5828.000000	19.461243
5826.000000	19.502910
5824.000000	19.543180
5822.000000	19.583486
5820.000000	19.622952
5818.000000	19.662817
5816.000000	19.702392
5814.000000	19.741681
5812.000000	19.780896
5810.000000	19.821030
5808.000000	19.861512
5806.000000	19.902255
5804.000000	19.941995
5802.000000	19.981768
5800.000000	20.021485
5798.000000	20.061972
5796.000000	20.101407
5794.000000	20.140575
5792.000000	20.179334
5790.000000	20.219641
5788.000000	20.260973
5786.000000	20.302496
5784.000000	20.343192
5782.000000	20.383644
5780.000000	20.423301
5778.000000	20.464207
5776.000000	20.505807
5774.000000	20.547500
5772.000000	20.588371
5770.000000	20.629237
5768.000000	20.669273
5766.000000	20.710209
5764.000000	20.750976
5762.000000	20.792925
5760.000000	20.834247
5758.000000	20.875006
5756.000000	20.915061
5754.000000	20.955749
5752.000000	20.996512
5750.000000	21.038552
5748.000000	21.080216
5746.000000	21.121400
5744.000000	21.160266
5742.000000	21.199921
5740.000000	21.239446
5738.000000	21.279838
5736.000000	21.318998
5734.000000	21.358737
5732.000000	21.397602
5730.000000	21.436520
5728.000000	21.475642
5726.000000	21.516884
5724.000000	21.558583
5722.000000	21.600213
5720.000000	21.641122
5718.000000	21.682979
5716.000000	21.724306
5714.000000	21.766733
5712.000000	21.809584
5710.000000	21.853649
5708.000000	21.897113
5706.000000	21.940073
5704.000000	21.982767
5702.000000	22.025898
5700.000000	22.069213
5698.000000	22.113126
5696.000000	22.156763
5694.000000	22.201091
5692.000000	22.245115
5690.000000	22.290659
5688.000000	22.335700
5686.000000	22.380465
5684.000000	22.424020
5682.000000	22.468737
5680.000000	22.513375
5678.000000	22.558026
5676.000000	22.601207
5674.000000	22.645391
5672.000000	22.690445
5670.000000	22.736003
5668.000000	22.780422
5666.000000	22.824610
5664.000000	22.868235
5662.000000	22.912773
5660.000000	22.957538
5658.000000	23.003372
5656.000000	23.048197
5654.000000	23.092430
5652.000000	23.135979
5650.000000	23.180578
5648.000000	23.225469
5646.000000	23.270278
5644.000000	23.315030
5642.000000	23.360971
5640.000000	23.406293
5638.000000	23.450635
5636.000000	23.493985
5634.000000	23.538342
5632.000000	23.582853
5630.000000	23.627777
5628.000000	23.672486
5626.000000	23.716933
5624.000000	23.760267
5622.000000	23.804353
5620.000000	23.849363
5618.000000	23.895022
5616.000000	23.939840
5614.000000	23.985236
5612.000000	24.029689
5610.000000	24.073514
5608.000000	24.117200
5606.000000	24.161908
5604.000000	24.207100
5602.000000	24.252925
5600.000000	24.298719
5598.000000	24.345907
5596.000000	24.392074
5594.000000	24.437578
5592.000000	24.481672
5590.000000	24.526355
5588.000000	24.571616
5586.000000	24.618142
5584.000000	24.664314
5582.000000	24.711434
5580.000000	24.758157
5578.000000	24.805987
5576.000000	24.852544
5574.000000	24.898330
5572.000000	24.943567
5570.000000	24.990942
5568.000000	25.038236
5566.000000	25.085046
5564.000000	25.131055
5562.000000	25.178234
5560.000000	25.225139
5558.000000	25.271670
5556.000000	25.316849
5554.000000	25.362805
5552.000000	25.409368
5550.000000	25.457696
5548.000000	25.505906
5546.000000	25.553461
5544.000000	25.599439
5542.000000	25.645604
5540.000000	25.690961
5538.000000	25.737373
5536.000000	25.784256
5534.000000	25.832306
5532.000000	25.879466
5530.000000	25.926273
5528.000000	25.972773
5526.000000	26.018964
5524.000000	26.063781
5522.000000	26.109199
5520.000000	26.154768
5518.000000	26.202168
5516.000000	26.250007
5514.000000	26.298326
5512.000000	26.343116
5510.000000	26.385991
5508.000000	26.429863
5506.000000	26.478248
5504.000000	26.528539
5502.000000	26.578580
5500.000000	26.626644
5498.000000	26.671819
5496.000000	26.711875
5494.000000	26.752292
5492.000000	26.796191
5490.000000	26.846885
5488.000000	26.900840
5486.000000	26.957471
5484.000000	27.012803
5482.000000	27.063463
5480.000000	27.103886
5478.000000	27.137844
5476.000000	27.177579
5474.000000	27.230563
5472.000000	27.289027
5470.000000	27.341973
5468.000000	27.388294
5466.000000	27.433764
5464.000000	27.476810
5462.000000	27.521916
5460.000000	27.571819
5458.000000	27.627199
5456.000000	27.682431
5454.000000	27.733073
5452.000000	27.776779
5450.000000	27.814548
5448.000000	27.850878
5446.000000	27.893226
5444.000000	27.939300
5442.000000	27.993390
5440.000000	28.048442
5438.000000	28.097434
5436.000000	28.142876
5434.000000	28.187868
5432.000000	28.231360
5430.000000	28.275760
5428.000000	28.329888
5426.000000	28.396796
5424.000000	28.460308
5422.000000	28.515238
5420.000000	28.563843
5418.000000	28.598423
5416.000000	28.620515
5414.000000	28.646899
5412.000000	28.693309
5410.000000	28.759785
5408.000000	28.828229
5406.000000	28.890620
5404.000000	28.945453
5402.000000	28.997361
5400.000000	29.042584
5398.000000	29.077291
5396.000000	29.107896
5394.000000	29.154376
5392.000000	29.216743
5390.000000	29.278201
5388.000000	29.324516
5386.000000	29.369624
5384.000000	29.425609
5382.000000	29.483185
5380.000000	29.523961
5378.000000	29.558064
5376.000000	29.604330
5374.000000	29.668837
5372.000000	29.735293
5370.000000	29.794206
5368.000000	29.844248
5366.000000	29.890596
5364.000000	29.937467
5362.000000	29.989790
5360.000000	30.043402
5358.000000	30.086997
5356.000000	30.118166
5354.000000	30.154984
5352.000000	30.206548
5350.000000	30.262670
5348.000000	30.301043
5346.000000	30.336265
5344.000000	30.383560
5342.000000	30.435773
5340.000000	30.483234
5338.000000	30.535444
5336.000000	30.600977
5334.000000	30.668308
5332.000000	30.722736
5330.000000	30.768765
5328.000000	30.815627
5326.000000	30.872074
5324.000000	30.934653
5322.000000	30.993787
5320.000000	31.045314
5318.000000	31.093540
5316.000000	31.141893
5314.000000	31.191843
5312.000000	31.238457
5310.000000	31.279907
5308.000000	31.324170
5306.000000	31.377875
5304.000000	31.435790
5302.000000	31.490369
5300.000000	31.541771
5298.000000	31.594641
5296.000000	31.645029
5294.000000	31.688355
5292.000000	31.728813
5290.000000	31.776705
5288.000000	31.832133
5286.000000	31.889346
5284.000000	31.942513
5282.000000	31.996713
5280.000000	32.051665
5278.000000	32.107966
5276.000000	32.163343
5274.000000	32.215313
5272.000000	32.261807
5270.000000	32.305783
5268.000000	32.343717
5266.000000	32.379257
5264.000000	32.422255
5262.000000	32.483920
5260.000000	32.551590
5258.000000	32.606510
5256.000000	32.652311
5254.000000	32.702489
5252.000000	32.751297
5250.000000	32.793592
5248.000000	32.834763
5246.000000	32.888684
5244.000000	32.953786
5242.000000	33.019955
5240.000000	33.081015
5238.000000	33.134649
5236.000000	33.184101
5234.000000	33.231564
5232.000000	33.278966
5230.000000	33.325240
5228.000000	33.366455
5226.000000	33.412167
5224.000000	33.469368
5222.000000	33.532773
5220.000000	33.590114
5218.000000	33.644885
5216.000000	33.701309
5214.000000	33.756260
5212.000000	33.799244
5210.000000	33.829326
5208.000000	33.862426
5206.000000	33.918528
5204.000000	33.991537
5202.000000	34.061121
5200.000000	34.114750
5198.000000	34.165093
5196.000000	34.218882
5194.000000	34.276630
5192.000000	34.330649
5190.000000	34.381378
5188.000000	34.429362
5186.000000	34.479835
5184.000000	34.534651
5182.000000	34.593642
5180.000000	34.650988
5178.000000	34.706962
5176.000000	34.762226
5174.000000	34.816626
5172.000000	34.868875
5170.000000	34.922573
5168.000000	34.976916
5166.000000	35.030778
5164.000000	35.083431
5162.000000	35.138127
5160.000000	35.192413
5158.000000	35.245212
5156.000000	35.298817
5154.000000	35.355969
5152.000000	35.412947
5150.000000	35.468501
5148.000000	35.521562
5146.000000	35.574052
5144.000000	35.625340
5142.000000	35.678577
5140.000000	35.732773
5138.000000	35.787907
5136.000000	35.841712
5134.000000	35.896066
5132.000000	35.949819
5130.000000	36.003672
5128.000000	36.056921
5126.000000	36.111322
5124.000000	36.165320
5122.000000	36.218854
5120.000000	36.271210
5118.000000	36.324865
5116.000000	36.378936
5114.000000	36.433665
5112.000000	36.488458
5110.000000	36.543703
5108.000000	36.597984
5106.000000	36.652861
5104.000000	36.708149
5102.000000	36.764285
5100.000000	36.818674
5098.000000	36.873458
5096.000000	36.927768
5094.000000	36.983406
5092.000000	37.039907
5090.000000	37.097678
5088.000000	37.154140
5086.000000	37.210204
5084.000000	37.266054
5082.000000	37.323011
5080.000000	37.379268
5078.000000	37.435366
5076.000000	37.490977
5074.000000	37.547377
5072.000000	37.603819
5070.000000	37.660484
5068.000000	37.715985
5066.000000	37.772011
5064.000000	37.827668
5062.000000	37.883967
5060.000000	37.940265
5058.000000	37.997362
5056.000000	38.052484
5054.000000	38.107350
5052.000000	38.162604
5050.000000	38.219631
5048.000000	38.275679
5046.000000	38.331185
5044.000000	38.385559
5042.000000	38.440621
5040.000000	38.496578
5038.000000	38.553832
5036.000000	38.609056
5034.000000	38.663765
5032.000000	38.718069
5030.000000	38.773529
5028.000000	38.828626
5026.000000	38.885075
5024.000000	38.941548
5022.000000	38.998366
5020.000000	39.054356
5018.000000	39.110224
5016.000000	39.165402
5014.000000	39.222112
5012.000000	39.278338
5010.000000	39.334871
5008.000000	39.391615
5006.000000	39.449406
5004.000000	39.506286
5002.000000	39.563115
5000.000000	39.620049
4998.000000	39.678167
4996.000000	39.735861
4994.000000	39.793601
4992.000000	39.850967
4990.000000	39.909643
4988.000000	39.967607
4986.000000	40.025623
4984.000000	40.083123
4982.000000	40.140549
4980.000000	40.197738
4978.000000	40.256550
4976.000000	40.314773
4974.000000	40.371967
4972.000000	40.428462
4970.000000	40.486273
4968.000000	40.543490
4966.000000	40.601114
4964.000000	40.658826
4962.000000	40.716845
4960.000000	40.773336
4958.000000	40.829435
4956.000000	40.885788
4954.000000	40.943718
4952.000000	41.001209
4950.000000	41.058187
4948.000000	41.114270
4946.000000	41.171075
4944.000000	41.226827
4942.000000	41.283154
4940.000000	41.340242
4938.000000	41.398379
4936.000000	41.454478
4934.000000	41.510718
4932.000000	41.566805
4930.000000	41.623915
4928.000000	41.680636
4926.000000	41.738093
4924.000000	41.793971
4922.000000	41.849910
4920.000000	41.905966
4918.000000	41.963431
4916.000000	42.020677
4914.000000	42.078843
4912.000000	42.136771
4910.000000	42.195161
4908.000000	42.252600
4906.000000	42.310821
4904.000000	42.369525
4902.000000	42.429232
4900.000000	42.487640
4898.000000	42.546406
4896.000000	42.605427
4894.000000	42.665402
4892.000000	42.724087
4890.000000	42.782627
4888.000000	42.840977
4886.000000	42.900121
4884.000000	42.958562
4882.000000	43.017483
4880.000000	43.076774
4878.000000	43.137030
4876.000000	43.195526
4874.000000	43.252704
4872.000000	43.310198
4870.000000	43.370496
4868.000000	43.429682
4866.000000	43.488449
4864.000000	43.546906
4862.000000	43.605310
4860.000000	43.661614
4858.000000	43.718729
4856.000000	43.776205
4854.000000	43.834289
4852.000000	43.891649
4850.000000	43.950133
4848.000000	44.008337
4846.000000	44.066974
4844.000000	44.124292
4842.000000	44.181974
4840.000000	44.239281
4838.000000	44.296941
4836.000000	44.353483
4834.000000	44.411261
4832.000000	44.469091
4830.000000	44.527162
4828.000000	44.584746
4826.000000	44.643397
4824.000000	44.700868
4822.000000	44.758689
4820.000000	44.817294
4818.000000	44.876577
4816.000000	44.934732
4814.000000	44.992973
4812.000000	45.050662
4810.000000	45.109746
4808.000000	45.169221
4806.000000	45.229204
4804.000000	45.287990
4802.000000	45.348067
4800.000000	45.408206
4798.000000	45.469077
4796.000000	45.529360
4794.000000	45.589858
4792.000000	45.650588
4790.000000	45.712004
4788.000000	45.771560
4786.000000	45.830703
4784.000000	45.889859
4782.000000	45.950194
4780.000000	46.009875
4778.000000	46.070165
4776.000000	46.129445
4774.000000	46.189659
4772.000000	46.249462
4770.000000	46.309462
4768.000000	46.368673
4766.000000	46.428705
4764.000000	46.487970
4762.000000	46.547022
4760.000000	46.604948
4758.000000	46.663560
4756.000000	46.722419
4754.000000	46.782122
4752.000000	46.839718
4750.000000	46.896639
4748.000000	46.953476
4746.000000	47.012362
4744.000000	47.070791
4742.000000	47.129187
4740.000000	47.186957
4738.000000	47.246556
4736.000000	47.305843
4734.000000	47.364087
4732.000000	47.420956
4730.000000	47.479215
4728.000000	47.537291
4726.000000	47.595459
4724.000000	47.654291
4722.000000	47.714877
4720.000000	47.774756
4718.000000	47.834893
4716.000000	47.894894
4714.000000	47.956952
4712.000000	48.019553
4710.000000	48.082768
4708.000000	48.144739
4706.000000	48.207774
4704.000000	48.270440
4702.000000	48.333571
4700.000000	48.396442
4698.000000	48.460756
4696.000000	48.522796
4694.000000	48.583344
4692.000000	48.643528
4690.000000	48.705603
4688.000000	48.767254
4686.000000	48.829835
4684.000000	48.891548
4682.000000	48.952960
4680.000000	49.013600
4678.000000	49.075242
4676.000000	49.136575
4674.000000	49.197951
4672.000000	49.258044
4670.000000	49.319545
4668.000000	49.380765
4666.000000	49.441621
4664.000000	49.502698
4662.000000	49.565174
4660.000000	49.625816
4658.000000	49.686394
4656.000000	49.747248
4654.000000	49.808847
4652.000000	49.869568
4650.000000	49.930288
4648.000000	49.990047
4646.000000	50.051538
4644.000000	50.112719
4642.000000	50.173754
4640.000000	50.234443
4638.000000	50.296533
4636.000000	50.356651
4634.000000	50.416490
4632.000000	50.477440
4630.000000	50.540332
4628.000000	50.601753
4626.000000	50.662545
4624.000000	50.723171
4622.000000	50.785938
4620.000000	50.848713
4618.000000	50.911135
4616.000000	50.972964
4614.000000	51.036804
4612.000000	51.101325
4610.000000	51.167009
4608.000000	51.232136
4606.000000	51.297618
4604.000000	51.361444
4602.000000	51.425254
4600.000000	51.489922
4598.000000	51.556664
4596.000000	51.621675
4594.000000	51.685660
4592.000000	51.749127
4590.000000	51.814153
4588.000000	51.878921
4586.000000	51.943833
4584.000000	52.007726
4582.000000	52.071706
4580.000000	52.133765
4578.000000	52.195958
4576.000000	52.259492
4574.000000	52.325708
4572.000000	52.391239
4570.000000	52.456313
4568.000000	52.519214
4566.000000	52.581739
4564.000000	52.644548
4562.000000	52.708866
4560.000000	52.772016
4558.000000	52.834764
4556.000000	52.897376
4554.000000	52.961649
4552.000000	53.025422
4550.000000	53.088582
4548.000000	53.150382
4546.000000	53.213053
4544.000000	53.275490
4542.000000	53.338503
4540.000000	53.400457
4538.000000	53.462546
4536.000000	53.524250
4534.000000	53.587705
4532.000000	53.650761
4530.000000	53.713593
4528.000000	53.776192
4526.000000	53.841151
4524.000000	53.906268
4522.000000	53.970749
4520.000000	54.033617
4518.000000	54.097249
4516.000000	54.160362
4514.000000	54.224779
4512.000000	54.290000
4510.000000	54.356267
4508.000000	54.422009
4506.000000	54.488153
4504.000000	54.552956
4502.000000	54.617993
4500.000000	54.683310
4498.000000	54.749677
4496.000000	54.815181
4494.000000	54.881306
4492.000000	54.947411
4490.000000	55.013849
4488.000000	55.078213
4486.000000	55.141834
4484.000000	55.205130
4482.000000	55.270484
4480.000000	55.335665
4478.000000	55.400297
4476.000000	55.463562
4474.000000	55.528073
4472.000000	55.592365
4470.000000	55.656390
4468.000000	55.718780
4466.000000	55.781359
4464.000000	55.843236
4462.000000	55.905773
4460.000000	55.967685
4458.000000	56.030096
4456.000000	56.092369
4454.000000	56.155789
4452.000000	56.218378
4450.000000	56.280991
4448.000000	56.342992
4446.000000	56.405296
4444.000000	56.466267
4442.000000	56.527616
4440.000000	56.589108
4438.000000	56.652347
4436.000000	56.715217
4434.000000	56.778063
4432.000000	56.840288
4430.000000	56.904355
4428.000000	56.968872
4426.000000	57.033330
4424.000000	57.096762
4422.000000	57.161512
4420.000000	57.225127
4418.000000	57.289140
4416.000000	57.353873
4414.000000	57.418840
4412.000000	57.481831
4410.000000	57.545567
4408.000000	57.609748
4406.000000	57.675180
4404.000000	57.740284
4402.000000	57.806120
4400.000000	57.871075
4398.000000	57.935660
4396.000000	57.999050
4394.000000	58.062602
4392.000000	58.125371
4390.000000	58.188756
4388.000000	58.250881
4386.000000	58.312858
4384.000000	58.373712
4382.000000	58.434347
4380.000000	58.494380
4378.000000	58.555805
4376.000000	58.616876
4374.000000	58.679153
4372.000000	58.740093
4370.000000	58.799826
4368.000000	58.859053
4366.000000	58.919331
4364.000000	58.978821
4362.000000	59.039967
4360.000000	59.101386
4358.000000	59.164265
4356.000000	59.227401
4354.000000	59.290911
4352.000000	59.353879
4350.000000	59.417577
4348.000000	59.480206
4346.000000	59.544061
4344.000000	59.607393
4342.000000	59.669606
4340.000000	59.730622
4338.000000	59.794365
4336.000000	59.859900
4334.000000	59.925614
4332.000000	59.989150
4330.000000	60.053857
4328.000000	60.118995
4326.000000	60.184521
4324.000000	60.249579
4322.000000	60.315986
4320.000000	60.382606
4318.000000	60.450201
4316.000000	60.517093
4314.000000	60.584787
4312.000000	60.652719
4310.000000	60.720563
4308.000000	60.787069
4306.000000	60.854927
4304.000000	60.921647
4302.000000	60.987209
4300.000000	61.053075
4298.000000	61.119534
4296.000000	61.183873
4294.000000	61.249388
4292.000000	61.314441
