PE IR       SUBTECH     SPECTRUM    ASCII       PEDS        4.00        
   -1
TE110A_027_80K_AFTER_100K_BG.ASC
20/05/14
12:34:02.00
20/05/14
12:34:02.00
Administrator
TE110A.Thursday, May 14 2020, 010.
1000.000000
#HDR
-1
-1
#GR
cm-1
EGY
1.0
0.0
6000.000000
-2.000000
2501
8
105.513833
11.032121
#DATA
6000.000000	16.712605
5998.000000	16.745923
5996.000000	16.777874
5994.000000	16.809726
5992.000000	16.841764
5990.000000	16.875004
5988.000000	16.908745
5986.000000	16.942241
5984.000000	16.975345
5982.000000	17.007760
5980.000000	17.040825
5978.000000	17.074586
5976.000000	17.108623
5974.000000	17.142670
5972.000000	17.176397
5970.000000	17.210775
5968.000000	17.245571
5966.000000	17.280520
5964.000000	17.314942
5962.000000	17.348306
5960.000000	17.381583
5958.000000	17.415049
5956.000000	17.447926
5954.000000	17.481439
5952.000000	17.516382
5950.000000	17.552054
5948.000000	17.587102
5946.000000	17.621107
5944.000000	17.654644
5942.000000	17.687942
5940.000000	17.721769
5938.000000	17.756504
5936.000000	17.791265
5934.000000	17.825323
5932.000000	17.858177
5930.000000	17.891185
5928.000000	17.925400
5926.000000	17.960831
5924.000000	17.996418
5922.000000	18.031932
5920.000000	18.067505
5918.000000	18.104281
5916.000000	18.141105
5914.000000	18.176813
5912.000000	18.212117
5910.000000	18.248025
5908.000000	18.284834
5906.000000	18.322138
5904.000000	18.359600
5902.000000	18.396505
5900.000000	18.433313
5898.000000	18.469739
5896.000000	18.506296
5894.000000	18.543058
5892.000000	18.578523
5890.000000	18.614826
5888.000000	18.650914
5886.000000	18.687062
5884.000000	18.723506
5882.000000	18.759081
5880.000000	18.795442
5878.000000	18.831525
5876.000000	18.867655
5874.000000	18.904161
5872.000000	18.940195
5870.000000	18.976711
5868.000000	19.013165
5866.000000	19.050533
5864.000000	19.087859
5862.000000	19.125342
5860.000000	19.162544
5858.000000	19.199643
5856.000000	19.237352
5854.000000	19.275380
5852.000000	19.314550
5850.000000	19.353681
5848.000000	19.392967
5846.000000	19.433356
5844.000000	19.474338
5842.000000	19.515130
5840.000000	19.554801
5838.000000	19.595171
5836.000000	19.637420
5834.000000	19.680164
5832.000000	19.722053
5830.000000	19.763655
5828.000000	19.805927
5826.000000	19.848334
5824.000000	19.889369
5822.000000	19.930197
5820.000000	19.970916
5818.000000	20.011827
5816.000000	20.052663
5814.000000	20.093241
5812.000000	20.134232
5810.000000	20.174572
5808.000000	20.214215
5806.000000	20.254605
5804.000000	20.296014
5802.000000	20.337327
5800.000000	20.377333
5798.000000	20.416753
5796.000000	20.457421
5794.000000	20.498987
5792.000000	20.540275
5790.000000	20.582094
5788.000000	20.623456
5786.000000	20.664709
5784.000000	20.705743
5782.000000	20.747846
5780.000000	20.789781
5778.000000	20.831313
5776.000000	20.873529
5774.000000	20.915866
5772.000000	20.957733
5770.000000	20.998849
5768.000000	21.041050
5766.000000	21.084957
5764.000000	21.128201
5762.000000	21.170338
5760.000000	21.210566
5758.000000	21.250809
5756.000000	21.292510
5754.000000	21.335084
5752.000000	21.377167
5750.000000	21.418827
5748.000000	21.460326
5746.000000	21.501465
5744.000000	21.542591
5742.000000	21.584028
5740.000000	21.625088
5738.000000	21.665324
5736.000000	21.705703
5734.000000	21.746450
5732.000000	21.787461
5730.000000	21.828005
5728.000000	21.867185
5726.000000	21.906633
5724.000000	21.947075
5722.000000	21.990529
5720.000000	22.034898
5718.000000	22.077997
5716.000000	22.120495
5714.000000	22.163663
5712.000000	22.207921
5710.000000	22.252886
5708.000000	22.296833
5706.000000	22.340574
5704.000000	22.384461
5702.000000	22.428574
5700.000000	22.473457
5698.000000	22.518460
5696.000000	22.563514
5694.000000	22.609238
5692.000000	22.654523
5690.000000	22.699603
5688.000000	22.743409
5686.000000	22.788457
5684.000000	22.834241
5682.000000	22.879667
5680.000000	22.924338
5678.000000	22.969912
5676.000000	23.016304
5674.000000	23.062933
5672.000000	23.108757
5670.000000	23.153965
5668.000000	23.198288
5666.000000	23.243304
5664.000000	23.289347
5662.000000	23.335686
5660.000000	23.381302
5658.000000	23.426109
5656.000000	23.470637
5654.000000	23.514999
5652.000000	23.560022
5650.000000	23.606414
5648.000000	23.652769
5646.000000	23.698925
5644.000000	23.745297
5642.000000	23.792070
5640.000000	23.837889
5638.000000	23.882259
5636.000000	23.926393
5634.000000	23.971473
5632.000000	24.017528
5630.000000	24.063850
5628.000000	24.109990
5626.000000	24.154430
5624.000000	24.198032
5622.000000	24.242654
5620.000000	24.288242
5618.000000	24.334455
5616.000000	24.380104
5614.000000	24.426476
5612.000000	24.473298
5610.000000	24.519809
5608.000000	24.565430
5606.000000	24.610645
5604.000000	24.656012
5602.000000	24.701574
5600.000000	24.747285
5598.000000	24.793808
5596.000000	24.840523
5594.000000	24.886618
5592.000000	24.932907
5590.000000	24.979666
5588.000000	25.026787
5586.000000	25.073746
5584.000000	25.120799
5582.000000	25.167397
5580.000000	25.213439
5578.000000	25.260138
5576.000000	25.307640
5574.000000	25.355519
5572.000000	25.403155
5570.000000	25.451724
5568.000000	25.499593
5566.000000	25.547283
5564.000000	25.595241
5562.000000	25.644280
5560.000000	25.692040
5558.000000	25.739242
5556.000000	25.786052
5554.000000	25.832805
5552.000000	25.879479
5550.000000	25.927234
5548.000000	25.976214
5546.000000	26.025781
5544.000000	26.073896
5542.000000	26.121360
5540.000000	26.167645
5538.000000	26.214101
5536.000000	26.260881
5534.000000	26.307657
5532.000000	26.354621
5530.000000	26.402352
5528.000000	26.450655
5526.000000	26.497946
5524.000000	26.543518
5522.000000	26.589449
5520.000000	26.636354
5518.000000	26.684676
5516.000000	26.733184
5514.000000	26.781264
5512.000000	26.827585
5510.000000	26.871572
5508.000000	26.917158
5506.000000	26.966056
5504.000000	27.017084
5502.000000	27.066903
5500.000000	27.115701
5498.000000	27.161741
5496.000000	27.202073
5494.000000	27.241139
5492.000000	27.284994
5490.000000	27.337126
5488.000000	27.393772
5486.000000	27.451876
5484.000000	27.508780
5482.000000	27.560018
5480.000000	27.601192
5478.000000	27.634245
5476.000000	27.674591
5474.000000	27.728605
5472.000000	27.788560
5470.000000	27.841952
5468.000000	27.889023
5466.000000	27.934666
5464.000000	27.978246
5462.000000	28.024132
5460.000000	28.076185
5458.000000	28.133116
5456.000000	28.190501
5454.000000	28.241566
5452.000000	28.284634
5450.000000	28.320248
5448.000000	28.355978
5446.000000	28.398013
5444.000000	28.444412
5442.000000	28.499510
5440.000000	28.556906
5438.000000	28.607993
5436.000000	28.653921
5434.000000	28.698356
5432.000000	28.742374
5430.000000	28.788186
5428.000000	28.844525
5426.000000	28.912528
5424.000000	28.977858
5422.000000	29.034044
5420.000000	29.082348
5418.000000	29.114967
5416.000000	29.135809
5414.000000	29.162193
5412.000000	29.210881
5410.000000	29.279635
5408.000000	29.350718
5406.000000	29.414199
5404.000000	29.469821
5402.000000	29.521696
5400.000000	29.567282
5398.000000	29.601478
5396.000000	29.631938
5394.000000	29.679114
5392.000000	29.744025
5390.000000	29.806323
5388.000000	29.851960
5386.000000	29.896811
5384.000000	29.955164
5382.000000	30.015307
5380.000000	30.055679
5378.000000	30.088223
5376.000000	30.134614
5374.000000	30.202212
5372.000000	30.273008
5370.000000	30.333618
5368.000000	30.383595
5366.000000	30.428970
5364.000000	30.477545
5362.000000	30.531944
5360.000000	30.585731
5358.000000	30.626288
5356.000000	30.654417
5354.000000	30.690829
5352.000000	30.744574
5350.000000	30.802394
5348.000000	30.840381
5346.000000	30.873866
5344.000000	30.922641
5342.000000	30.976175
5340.000000	31.023706
5338.000000	31.076228
5336.000000	31.144353
5334.000000	31.214498
5332.000000	31.268799
5330.000000	31.312139
5328.000000	31.359597
5326.000000	31.418703
5324.000000	31.485488
5322.000000	31.545868
5320.000000	31.598397
5318.000000	31.648012
5316.000000	31.697843
5314.000000	31.748784
5312.000000	31.795847
5310.000000	31.837423
5308.000000	31.881945
5306.000000	31.935651
5304.000000	31.994114
5302.000000	32.048625
5300.000000	32.100656
5298.000000	32.153944
5296.000000	32.206024
5294.000000	32.249660
5292.000000	32.289266
5290.000000	32.337338
5288.000000	32.394555
5286.000000	32.453477
5284.000000	32.507827
5282.000000	32.562703
5280.000000	32.619241
5278.000000	32.675629
5276.000000	32.730929
5274.000000	32.782352
5272.000000	32.829178
5270.000000	32.873688
5268.000000	32.911043
5266.000000	32.945352
5264.000000	32.989152
5262.000000	33.052684
5260.000000	33.121973
5258.000000	33.175943
5256.000000	33.222135
5254.000000	33.272995
5252.000000	33.322192
5250.000000	33.363151
5248.000000	33.404385
5246.000000	33.459893
5244.000000	33.527983
5242.000000	33.597265
5240.000000	33.660722
5238.000000	33.715560
5236.000000	33.764960
5234.000000	33.811212
5232.000000	33.857883
5230.000000	33.903555
5228.000000	33.944957
5226.000000	33.991021
5224.000000	34.049909
5222.000000	34.114084
5220.000000	34.171529
5218.000000	34.226354
5216.000000	34.283879
5214.000000	34.338435
5212.000000	34.380540
5210.000000	34.409862
5208.000000	34.442443
5206.000000	34.499195
5204.000000	34.575697
5202.000000	34.648546
5200.000000	34.703213
5198.000000	34.752188
5196.000000	34.806298
5194.000000	34.864687
5192.000000	34.920372
5190.000000	34.971730
5188.000000	35.019795
5186.000000	35.071218
5184.000000	35.128880
5182.000000	35.189548
5180.000000	35.246930
5178.000000	35.302443
5176.000000	35.359100
5174.000000	35.414255
5172.000000	35.467322
5170.000000	35.521558
5168.000000	35.576538
5166.000000	35.628660
5164.000000	35.679720
5162.000000	35.734795
5160.000000	35.791148
5158.000000	35.845269
5156.000000	35.899392
5154.000000	35.955691
5152.000000	36.011663
5150.000000	36.067158
5148.000000	36.123114
5146.000000	36.178319
5144.000000	36.231400
5142.000000	36.285123
5140.000000	36.339900
5138.000000	36.394572
5136.000000	36.448166
5134.000000	36.502130
5132.000000	36.556472
5130.000000	36.611087
5128.000000	36.666294
5126.000000	36.721853
5124.000000	36.776192
5122.000000	36.829176
5120.000000	36.882214
5118.000000	36.936711
5116.000000	36.990927
5114.000000	37.044838
5112.000000	37.099123
5110.000000	37.154895
5108.000000	37.210071
5106.000000	37.264568
5104.000000	37.319764
5102.000000	37.376086
5100.000000	37.432359
5098.000000	37.488381
5096.000000	37.544690
5094.000000	37.601111
5092.000000	37.656773
5090.000000	37.713517
5088.000000	37.771643
5086.000000	37.829388
5084.000000	37.885317
5082.000000	37.941205
5080.000000	37.998137
5078.000000	38.056004
5076.000000	38.113341
5074.000000	38.169979
5072.000000	38.225441
5070.000000	38.281229
5068.000000	38.337701
5066.000000	38.394808
5064.000000	38.452131
5062.000000	38.508919
5060.000000	38.564972
5058.000000	38.621336
5056.000000	38.677788
5054.000000	38.733690
5052.000000	38.789067
5050.000000	38.845937
5048.000000	38.903008
5046.000000	38.958459
5044.000000	39.013051
5042.000000	39.069136
5040.000000	39.125935
5038.000000	39.182082
5036.000000	39.237368
5034.000000	39.293334
5032.000000	39.349407
5030.000000	39.405607
5028.000000	39.460816
5026.000000	39.516483
5024.000000	39.572496
5022.000000	39.628960
5020.000000	39.684861
5018.000000	39.741294
5016.000000	39.798282
5014.000000	39.856221
5012.000000	39.913180
5010.000000	39.970236
5008.000000	40.026969
5006.000000	40.082942
5004.000000	40.138979
5002.000000	40.197273
5000.000000	40.256373
4998.000000	40.314423
4996.000000	40.372714
4994.000000	40.431565
4992.000000	40.489362
4990.000000	40.547451
4988.000000	40.606146
4986.000000	40.664246
4984.000000	40.721194
4982.000000	40.780218
4980.000000	40.840547
4978.000000	40.900303
4976.000000	40.958050
4974.000000	41.015624
4972.000000	41.072826
4970.000000	41.130092
4968.000000	41.186742
4966.000000	41.244430
4964.000000	41.302838
4962.000000	41.360661
4960.000000	41.417260
4958.000000	41.474480
4956.000000	41.532117
4954.000000	41.589959
4952.000000	41.647454
4950.000000	41.704999
4948.000000	41.761091
4946.000000	41.817183
4944.000000	41.873041
4942.000000	41.930090
4940.000000	41.987298
4938.000000	42.044441
4936.000000	42.100829
4934.000000	42.157774
4932.000000	42.215335
4930.000000	42.273632
4928.000000	42.331431
4926.000000	42.387842
4924.000000	42.443779
4922.000000	42.501139
4920.000000	42.558810
4918.000000	42.615354
4916.000000	42.671604
4914.000000	42.729314
4912.000000	42.787470
4910.000000	42.845623
4908.000000	42.903598
4906.000000	42.962344
4904.000000	43.021888
4902.000000	43.081739
4900.000000	43.140273
4898.000000	43.198076
4896.000000	43.256756
4894.000000	43.316905
4892.000000	43.377441
4890.000000	43.437873
4888.000000	43.497148
4886.000000	43.556483
4884.000000	43.616072
4882.000000	43.675671
4880.000000	43.734238
4878.000000	43.793578
4876.000000	43.852968
4874.000000	43.911202
4872.000000	43.969328
4870.000000	44.028997
4868.000000	44.088526
4866.000000	44.147102
4864.000000	44.205443
4862.000000	44.263611
4860.000000	44.321687
4858.000000	44.381213
4856.000000	44.439933
4854.000000	44.498132
4852.000000	44.556883
4850.000000	44.616005
4848.000000	44.672553
4846.000000	44.728874
4844.000000	44.786515
4842.000000	44.845795
4840.000000	44.903706
4838.000000	44.959880
4836.000000	45.016528
4834.000000	45.075035
4832.000000	45.133076
4830.000000	45.190940
4828.000000	45.249220
4826.000000	45.307096
4824.000000	45.364137
4822.000000	45.422124
4820.000000	45.480774
4818.000000	45.539635
4816.000000	45.598439
4814.000000	45.658182
4812.000000	45.717763
4810.000000	45.776885
4808.000000	45.835871
4806.000000	45.896378
4804.000000	45.957423
4802.000000	46.018412
4800.000000	46.078809
4798.000000	46.139126
4796.000000	46.198713
4794.000000	46.257527
4792.000000	46.316945
4790.000000	46.378302
4788.000000	46.439600
4786.000000	46.499620
4784.000000	46.559360
4782.000000	46.620217
4780.000000	46.680389
4778.000000	46.740253
4776.000000	46.800382
4774.000000	46.861118
4772.000000	46.920512
4770.000000	46.980257
4768.000000	47.040777
4766.000000	47.101278
4764.000000	47.159415
4762.000000	47.217222
4760.000000	47.275564
4758.000000	47.334332
4756.000000	47.392537
4754.000000	47.451914
4752.000000	47.511669
4750.000000	47.571431
4748.000000	47.629719
4746.000000	47.686796
4744.000000	47.743048
4742.000000	47.800405
4740.000000	47.858537
4738.000000	47.916934
4736.000000	47.974668
4734.000000	48.032338
4732.000000	48.090672
4730.000000	48.150162
4728.000000	48.209212
4726.000000	48.268714
4724.000000	48.328970
4722.000000	48.389754
4720.000000	48.449510
4718.000000	48.509884
4716.000000	48.570813
4714.000000	48.632482
4712.000000	48.694433
4710.000000	48.757598
4708.000000	48.821032
4706.000000	48.884235
4704.000000	48.946584
4702.000000	49.009497
4700.000000	49.072669
4698.000000	49.134997
4696.000000	49.196583
4694.000000	49.259606
4692.000000	49.322279
4690.000000	49.382469
4688.000000	49.442342
4686.000000	49.504814
4684.000000	49.567441
4682.000000	49.629428
4680.000000	49.691347
4678.000000	49.752753
4676.000000	49.812710
4674.000000	49.873473
4672.000000	49.934723
4670.000000	49.995822
4668.000000	50.056317
4666.000000	50.118061
4664.000000	50.180179
4662.000000	50.242865
4660.000000	50.304778
4658.000000	50.365820
4656.000000	50.425269
4654.000000	50.486036
4652.000000	50.547047
4650.000000	50.608024
4648.000000	50.669513
4646.000000	50.732639
4644.000000	50.794239
4642.000000	50.855138
4640.000000	50.916243
4638.000000	50.977531
4636.000000	51.037864
4634.000000	51.099266
4632.000000	51.160376
4630.000000	51.221013
4628.000000	51.282095
4626.000000	51.344686
4624.000000	51.405995
4622.000000	51.467247
4620.000000	51.528874
4618.000000	51.592140
4616.000000	51.655872
4614.000000	51.719796
4612.000000	51.783605
4610.000000	51.849054
4608.000000	51.914090
4606.000000	51.979136
4604.000000	52.044668
4602.000000	52.109780
4600.000000	52.172921
4598.000000	52.237272
4596.000000	52.303093
4594.000000	52.369117
4592.000000	52.433554
4590.000000	52.498090
4588.000000	52.562713
4586.000000	52.627884
4584.000000	52.692508
4582.000000	52.756652
4580.000000	52.819862
4578.000000	52.883952
4576.000000	52.947771
4574.000000	53.010728
4572.000000	53.074291
4570.000000	53.139219
4568.000000	53.203090
4566.000000	53.266072
4564.000000	53.328968
4562.000000	53.392628
4560.000000	53.456613
4558.000000	53.519780
4556.000000	53.581736
4554.000000	53.644693
4552.000000	53.707554
4550.000000	53.769752
4548.000000	53.831987
4546.000000	53.895109
4544.000000	53.957869
4542.000000	54.020730
4540.000000	54.083157
4538.000000	54.146468
4536.000000	54.208980
4534.000000	54.271024
4532.000000	54.333560
4530.000000	54.398125
4528.000000	54.462061
4526.000000	54.525944
4524.000000	54.589759
4522.000000	54.654597
4520.000000	54.718954
4518.000000	54.783486
4516.000000	54.848610
4514.000000	54.913641
4512.000000	54.976856
4510.000000	55.041545
4508.000000	55.107828
4506.000000	55.173944
4504.000000	55.238912
4502.000000	55.304437
4500.000000	55.369571
4498.000000	55.435334
4496.000000	55.501275
4494.000000	55.567448
4492.000000	55.632897
4490.000000	55.698634
4488.000000	55.763506
4486.000000	55.828464
4484.000000	55.893682
4482.000000	55.958585
4480.000000	56.021702
4478.000000	56.085011
4476.000000	56.148194
4474.000000	56.212621
4472.000000	56.277665
4470.000000	56.341770
4468.000000	56.403500
4466.000000	56.466474
4464.000000	56.529471
4462.000000	56.591499
4460.000000	56.652815
4458.000000	56.715686
4456.000000	56.778341
4454.000000	56.841037
4452.000000	56.902434
4450.000000	56.963858
4448.000000	57.025100
4446.000000	57.087209
4444.000000	57.149631
4442.000000	57.213175
4440.000000	57.275861
4438.000000	57.338755
4436.000000	57.401468
4434.000000	57.464269
4432.000000	57.526863
4430.000000	57.590621
4428.000000	57.653608
4426.000000	57.716715
4424.000000	57.779984
4422.000000	57.844258
4420.000000	57.908472
4418.000000	57.973781
4416.000000	58.038782
4414.000000	58.102766
4412.000000	58.165815
4410.000000	58.231100
4408.000000	58.296509
4406.000000	58.361590
4404.000000	58.426143
4402.000000	58.490438
4400.000000	58.554042
4398.000000	58.618391
4396.000000	58.682314
4394.000000	58.745766
4392.000000	58.807524
4390.000000	58.870486
4388.000000	58.934219
4386.000000	58.996738
4384.000000	59.057514
4382.000000	59.119312
4380.000000	59.180075
4378.000000	59.240538
4376.000000	59.300754
4374.000000	59.361430
4372.000000	59.421484
4370.000000	59.481719
4368.000000	59.541790
4366.000000	59.602783
4364.000000	59.662639
4362.000000	59.722610
4360.000000	59.783157
4358.000000	59.844853
4356.000000	59.907395
4354.000000	59.971492
4352.000000	60.034199
4350.000000	60.096549
4348.000000	60.159270
4346.000000	60.223207
4344.000000	60.287225
4342.000000	60.351287
4340.000000	60.413773
4338.000000	60.476964
4336.000000	60.541001
4334.000000	60.605915
4332.000000	60.669484
4330.000000	60.733526
4328.000000	60.799041
4326.000000	60.865528
4324.000000	60.930874
4322.000000	60.997223
4320.000000	61.063509
4318.000000	61.130655
4316.000000	61.198353
4314.000000	61.266162
4312.000000	61.332952
4310.000000	61.400232
4308.000000	61.467126
4306.000000	61.534204
4304.000000	61.601251
4302.000000	61.669077
4300.000000	61.735054
4298.000000	61.799324
4296.000000	61.862638
4294.000000	61.927237
4292.000000	61.993279
