PE IR       SUBTECH     SPECTRUM    ASCII       PEDS        4.00        
   -1
TE110A_080_140K_BG.ASC
20/05/14
15:32:25.00
20/05/14
15:32:25.00
Administrator
TE110A.Thursday, May 14 2020, 011.
1000.000000
#HDR
-1
-1
#GR
cm-1
EGY
1.0
0.0
6000.000000
-2.000000
2501
8
105.187050
11.076737
#DATA
6000.000000	16.457750
5998.000000	16.490966
5996.000000	16.523177
5994.000000	16.555783
5992.000000	16.587797
5990.000000	16.620033
5988.000000	16.652209
5986.000000	16.684235
5984.000000	16.716552
5982.000000	16.749904
5980.000000	16.782535
5978.000000	16.814955
5976.000000	16.846676
5974.000000	16.879199
5972.000000	16.912409
5970.000000	16.945589
5968.000000	16.978899
5966.000000	17.012963
5964.000000	17.046635
5962.000000	17.081480
5960.000000	17.115062
5958.000000	17.148800
5956.000000	17.181969
5954.000000	17.215115
5952.000000	17.248298
5950.000000	17.281655
5948.000000	17.314323
5946.000000	17.347836
5944.000000	17.381076
5942.000000	17.414533
5940.000000	17.446887
5938.000000	17.479439
5936.000000	17.511871
5934.000000	17.544847
5932.000000	17.578353
5930.000000	17.612356
5928.000000	17.645641
5926.000000	17.679396
5924.000000	17.713316
5922.000000	17.748557
5920.000000	17.783571
5918.000000	17.818403
5916.000000	17.853593
5914.000000	17.889584
5912.000000	17.925094
5910.000000	17.961336
5908.000000	17.997341
5906.000000	18.033661
5904.000000	18.068697
5902.000000	18.104664
5900.000000	18.140622
5898.000000	18.177333
5896.000000	18.213631
5894.000000	18.250043
5892.000000	18.285238
5890.000000	18.319169
5888.000000	18.352720
5886.000000	18.387735
5884.000000	18.423043
5882.000000	18.458643
5880.000000	18.494181
5878.000000	18.529521
5876.000000	18.564374
5874.000000	18.599873
5872.000000	18.636062
5870.000000	18.673062
5868.000000	18.708957
5866.000000	18.745563
5864.000000	18.782304
5862.000000	18.820218
5860.000000	18.857439
5858.000000	18.894816
5856.000000	18.931040
5854.000000	18.967431
5852.000000	19.003034
5850.000000	19.040497
5848.000000	19.078709
5846.000000	19.118792
5844.000000	19.159503
5842.000000	19.200612
5840.000000	19.240711
5838.000000	19.280081
5836.000000	19.319803
5834.000000	19.361141
5832.000000	19.402630
5830.000000	19.444135
5828.000000	19.483866
5826.000000	19.523071
5824.000000	19.562718
5822.000000	19.603679
5820.000000	19.644715
5818.000000	19.685271
5816.000000	19.724029
5814.000000	19.764508
5812.000000	19.804176
5810.000000	19.843906
5808.000000	19.882631
5806.000000	19.922675
5804.000000	19.963954
5802.000000	20.005326
5800.000000	20.045087
5798.000000	20.084801
5796.000000	20.124891
5794.000000	20.165905
5792.000000	20.206178
5790.000000	20.246961
5788.000000	20.287093
5786.000000	20.327663
5784.000000	20.366860
5782.000000	20.406773
5780.000000	20.447719
5778.000000	20.489631
5776.000000	20.530831
5774.000000	20.571477
5772.000000	20.611921
5770.000000	20.653293
5768.000000	20.694232
5766.000000	20.735688
5764.000000	20.777337
5762.000000	20.819210
5760.000000	20.860118
5758.000000	20.900533
5756.000000	20.940946
5754.000000	20.982938
5752.000000	21.024937
5750.000000	21.066739
5748.000000	21.106062
5746.000000	21.145294
5744.000000	21.185003
5742.000000	21.225923
5740.000000	21.266984
5738.000000	21.307219
5736.000000	21.345608
5734.000000	21.384137
5732.000000	21.423694
5730.000000	21.464338
5728.000000	21.503740
5726.000000	21.542829
5724.000000	21.583785
5722.000000	21.627366
5720.000000	21.669178
5718.000000	21.709837
5716.000000	21.750584
5714.000000	21.794014
5712.000000	21.837548
5710.000000	21.880821
5708.000000	21.923747
5706.000000	21.967336
5704.000000	22.010026
5702.000000	22.053330
5700.000000	22.096630
5698.000000	22.140622
5696.000000	22.184822
5694.000000	22.230112
5692.000000	22.275358
5690.000000	22.319628
5688.000000	22.362569
5686.000000	22.405985
5684.000000	22.450082
5682.000000	22.496438
5680.000000	22.541539
5678.000000	22.585569
5676.000000	22.628897
5674.000000	22.674400
5672.000000	22.720623
5670.000000	22.765126
5668.000000	22.807889
5666.000000	22.852345
5664.000000	22.897247
5662.000000	22.942438
5660.000000	22.986835
5658.000000	23.033338
5656.000000	23.080006
5654.000000	23.124955
5652.000000	23.167648
5650.000000	23.211100
5648.000000	23.254969
5646.000000	23.300202
5644.000000	23.345155
5642.000000	23.390852
5640.000000	23.435134
5638.000000	23.479036
5636.000000	23.522730
5634.000000	23.567103
5632.000000	23.612054
5630.000000	23.657576
5628.000000	23.702294
5626.000000	23.747028
5624.000000	23.791355
5622.000000	23.836204
5620.000000	23.880593
5618.000000	23.925817
5616.000000	23.970416
5614.000000	24.015531
5612.000000	24.060036
5610.000000	24.105528
5608.000000	24.150559
5606.000000	24.195437
5604.000000	24.239625
5602.000000	24.285014
5600.000000	24.330278
5598.000000	24.375696
5596.000000	24.420399
5594.000000	24.466267
5592.000000	24.512499
5590.000000	24.559325
5588.000000	24.605057
5586.000000	24.651223
5584.000000	24.697089
5582.000000	24.745154
5580.000000	24.792199
5578.000000	24.837972
5576.000000	24.882612
5574.000000	24.928631
5572.000000	24.975320
5570.000000	25.022978
5568.000000	25.070435
5566.000000	25.117681
5564.000000	25.163748
5562.000000	25.211763
5560.000000	25.260254
5558.000000	25.307266
5556.000000	25.352231
5554.000000	25.397736
5552.000000	25.444204
5550.000000	25.491600
5548.000000	25.539042
5546.000000	25.586934
5544.000000	25.633194
5542.000000	25.679420
5540.000000	25.725151
5538.000000	25.771266
5536.000000	25.817812
5534.000000	25.865968
5532.000000	25.914206
5530.000000	25.961863
5528.000000	26.007463
5526.000000	26.052568
5524.000000	26.097080
5522.000000	26.143093
5520.000000	26.188839
5518.000000	26.235906
5516.000000	26.284514
5514.000000	26.334307
5512.000000	26.381386
5510.000000	26.424756
5508.000000	26.468191
5506.000000	26.515827
5504.000000	26.565670
5502.000000	26.615608
5500.000000	26.663371
5498.000000	26.707927
5496.000000	26.746210
5494.000000	26.784884
5492.000000	26.829703
5490.000000	26.882710
5488.000000	26.937456
5486.000000	26.992655
5484.000000	27.047192
5482.000000	27.098739
5480.000000	27.140051
5478.000000	27.174327
5476.000000	27.214607
5474.000000	27.267951
5472.000000	27.326023
5470.000000	27.377692
5468.000000	27.424379
5466.000000	27.470483
5464.000000	27.514276
5462.000000	27.559349
5460.000000	27.609074
5458.000000	27.664121
5456.000000	27.719288
5454.000000	27.770003
5452.000000	27.814120
5450.000000	27.852187
5448.000000	27.888948
5446.000000	27.930599
5444.000000	27.975939
5442.000000	28.030467
5440.000000	28.086344
5438.000000	28.136305
5436.000000	28.180820
5434.000000	28.224531
5432.000000	28.267804
5430.000000	28.313235
5428.000000	28.368572
5426.000000	28.435652
5424.000000	28.499448
5422.000000	28.554570
5420.000000	28.602459
5418.000000	28.637142
5416.000000	28.660640
5414.000000	28.688419
5412.000000	28.735134
5410.000000	28.800589
5408.000000	28.868236
5406.000000	28.931040
5404.000000	28.985464
5402.000000	29.036039
5400.000000	29.080514
5398.000000	29.116499
5396.000000	29.149747
5394.000000	29.196621
5392.000000	29.258114
5390.000000	29.318370
5388.000000	29.364468
5386.000000	29.409944
5384.000000	29.464876
5382.000000	29.521654
5380.000000	29.562767
5378.000000	29.598152
5376.000000	29.645856
5374.000000	29.711507
5372.000000	29.779102
5370.000000	29.837829
5368.000000	29.886756
5366.000000	29.931897
5364.000000	29.978823
5362.000000	30.032130
5360.000000	30.085429
5358.000000	30.127268
5356.000000	30.157023
5354.000000	30.194264
5352.000000	30.247218
5350.000000	30.304961
5348.000000	30.345556
5346.000000	30.380813
5344.000000	30.426430
5342.000000	30.477427
5340.000000	30.525113
5338.000000	30.578903
5336.000000	30.644787
5334.000000	30.711855
5332.000000	30.765030
5330.000000	30.809092
5328.000000	30.856364
5326.000000	30.913919
5324.000000	30.977667
5322.000000	31.036208
5320.000000	31.086995
5318.000000	31.136271
5316.000000	31.185465
5314.000000	31.235729
5312.000000	31.281866
5310.000000	31.324070
5308.000000	31.369177
5306.000000	31.422331
5304.000000	31.478991
5302.000000	31.533275
5300.000000	31.585898
5298.000000	31.639650
5296.000000	31.690586
5294.000000	31.734454
5292.000000	31.774707
5290.000000	31.821867
5288.000000	31.876645
5286.000000	31.933981
5284.000000	31.987875
5282.000000	32.042163
5280.000000	32.097260
5278.000000	32.152743
5276.000000	32.206987
5274.000000	32.259126
5272.000000	32.306561
5270.000000	32.351244
5268.000000	32.388681
5266.000000	32.423854
5264.000000	32.467223
5262.000000	32.529319
5260.000000	32.596816
5258.000000	32.650331
5256.000000	32.695372
5254.000000	32.746460
5252.000000	32.796716
5250.000000	32.838564
5248.000000	32.879449
5246.000000	32.934190
5244.000000	32.999894
5242.000000	33.066883
5240.000000	33.129108
5238.000000	33.183253
5236.000000	33.231440
5234.000000	33.277623
5232.000000	33.325499
5230.000000	33.372290
5228.000000	33.413715
5226.000000	33.459187
5224.000000	33.515976
5222.000000	33.579277
5220.000000	33.636672
5218.000000	33.691109
5216.000000	33.746032
5214.000000	33.798904
5212.000000	33.841594
5210.000000	33.873424
5208.000000	33.907835
5206.000000	33.963395
5204.000000	34.035903
5202.000000	34.106179
5200.000000	34.160336
5198.000000	34.209780
5196.000000	34.264495
5194.000000	34.324331
5192.000000	34.378926
5190.000000	34.428530
5188.000000	34.476813
5186.000000	34.528667
5184.000000	34.583329
5182.000000	34.640988
5180.000000	34.698308
5178.000000	34.755698
5176.000000	34.812043
5174.000000	34.866593
5172.000000	34.919261
5170.000000	34.973666
5168.000000	35.027028
5166.000000	35.078919
5164.000000	35.130845
5162.000000	35.186232
5160.000000	35.240949
5158.000000	35.294433
5156.000000	35.348712
5154.000000	35.405315
5152.000000	35.461207
5150.000000	35.516588
5148.000000	35.571033
5146.000000	35.624082
5144.000000	35.675207
5142.000000	35.728260
5140.000000	35.782941
5138.000000	35.837790
5136.000000	35.890449
5134.000000	35.943880
5132.000000	35.998718
5130.000000	36.054684
5128.000000	36.109060
5126.000000	36.162718
5124.000000	36.215672
5122.000000	36.268690
5120.000000	36.320601
5118.000000	36.374362
5116.000000	36.429190
5114.000000	36.484655
5112.000000	36.538343
5110.000000	36.593059
5108.000000	36.647776
5106.000000	36.702325
5104.000000	36.755918
5102.000000	36.811410
5100.000000	36.867067
5098.000000	36.923568
5096.000000	36.980252
5094.000000	37.037157
5092.000000	37.092034
5090.000000	37.146637
5088.000000	37.202742
5086.000000	37.260678
5084.000000	37.317154
5082.000000	37.373059
5080.000000	37.429226
5078.000000	37.486860
5076.000000	37.542600
5074.000000	37.598198
5072.000000	37.653322
5070.000000	37.709405
5068.000000	37.765650
5066.000000	37.823342
5064.000000	37.879789
5062.000000	37.934866
5060.000000	37.989416
5058.000000	38.046042
5056.000000	38.103097
5054.000000	38.159976
5052.000000	38.215284
5050.000000	38.270992
5048.000000	38.326351
5046.000000	38.382530
5044.000000	38.438618
5042.000000	38.495288
5040.000000	38.550526
5038.000000	38.605777
5036.000000	38.661194
5034.000000	38.717519
5032.000000	38.772880
5030.000000	38.828421
5028.000000	38.883085
5026.000000	38.938118
5024.000000	38.993194
5022.000000	39.049797
5020.000000	39.105603
5018.000000	39.161409
5016.000000	39.216753
5014.000000	39.272781
5012.000000	39.329393
5010.000000	39.387384
5008.000000	39.443610
5006.000000	39.499171
5004.000000	39.555811
5002.000000	39.614834
5000.000000	39.672313
4998.000000	39.730261
4996.000000	39.788828
4994.000000	39.847819
4992.000000	39.904708
4990.000000	39.961770
4988.000000	40.018605
4986.000000	40.076695
4984.000000	40.135362
4982.000000	40.195256
4980.000000	40.254016
4978.000000	40.312225
4976.000000	40.369308
4974.000000	40.426719
4972.000000	40.482830
4970.000000	40.539525
4968.000000	40.596725
4966.000000	40.654836
4964.000000	40.712016
4962.000000	40.769597
4960.000000	40.827030
4958.000000	40.884994
4956.000000	40.941974
4954.000000	40.998701
4952.000000	41.054558
4950.000000	41.111640
4948.000000	41.167761
4946.000000	41.223790
4944.000000	41.280197
4942.000000	41.337900
4940.000000	41.394523
4938.000000	41.450109
4936.000000	41.505489
4934.000000	41.563241
4932.000000	41.620894
4930.000000	41.677743
4928.000000	41.733102
4926.000000	41.789731
4924.000000	41.847064
4922.000000	41.905788
4920.000000	41.962880
4918.000000	42.019924
4916.000000	42.077682
4914.000000	42.135951
4912.000000	42.191766
4910.000000	42.248326
4908.000000	42.306245
4906.000000	42.365525
4904.000000	42.424205
4902.000000	42.483272
4900.000000	42.541503
4898.000000	42.600293
4896.000000	42.658786
4894.000000	42.718678
4892.000000	42.777991
4890.000000	42.837210
4888.000000	42.895729
4886.000000	42.955273
4884.000000	43.014343
4882.000000	43.074196
4880.000000	43.133976
4878.000000	43.193702
4876.000000	43.251162
4874.000000	43.308846
4872.000000	43.366806
4870.000000	43.426139
4868.000000	43.484537
4866.000000	43.543192
4864.000000	43.601327
4862.000000	43.660202
4860.000000	43.717184
4858.000000	43.774537
4856.000000	43.832691
4854.000000	43.891968
4852.000000	43.948780
4850.000000	44.005610
4848.000000	44.063624
4846.000000	44.122693
4844.000000	44.180332
4842.000000	44.237533
4840.000000	44.294262
4838.000000	44.352179
4836.000000	44.410090
4834.000000	44.468103
4832.000000	44.525291
4830.000000	44.583004
4828.000000	44.640215
4826.000000	44.698818
4824.000000	44.757422
4822.000000	44.815582
4820.000000	44.872437
4818.000000	44.931336
4816.000000	44.990385
4814.000000	45.049689
4812.000000	45.108127
4810.000000	45.168010
4808.000000	45.227481
4806.000000	45.287111
4804.000000	45.346182
4802.000000	45.405851
4800.000000	45.465225
4798.000000	45.526109
4796.000000	45.587227
4794.000000	45.647953
4792.000000	45.707323
4790.000000	45.767872
4788.000000	45.827670
4786.000000	45.887445
4784.000000	45.947578
4782.000000	46.009021
4780.000000	46.068637
4778.000000	46.128508
4776.000000	46.188572
4774.000000	46.248779
4772.000000	46.307246
4770.000000	46.366340
4768.000000	46.425637
4766.000000	46.485534
4764.000000	46.543773
4762.000000	46.602469
4760.000000	46.661440
4758.000000	46.720825
4756.000000	46.778807
4754.000000	46.837285
4752.000000	46.895482
4750.000000	46.953983
4748.000000	47.011061
4746.000000	47.069302
4744.000000	47.128670
4742.000000	47.188355
4740.000000	47.245446
4738.000000	47.302973
4736.000000	47.360699
4734.000000	47.419334
4732.000000	47.477906
4730.000000	47.537044
4728.000000	47.594664
4726.000000	47.653596
4724.000000	47.713920
4722.000000	47.773866
4720.000000	47.831812
4718.000000	47.891730
4716.000000	47.953377
4714.000000	48.015378
4712.000000	48.076561
4710.000000	48.139561
4708.000000	48.202709
4706.000000	48.266164
4704.000000	48.328618
4702.000000	48.391730
4700.000000	48.454382
4698.000000	48.517341
4696.000000	48.579149
4694.000000	48.640907
4692.000000	48.702637
4690.000000	48.765104
4688.000000	48.826228
4686.000000	48.886847
4684.000000	48.946684
4682.000000	49.008354
4680.000000	49.070474
4678.000000	49.132624
4676.000000	49.192986
4674.000000	49.254562
4672.000000	49.315633
4670.000000	49.376851
4668.000000	49.437751
4666.000000	49.499539
4664.000000	49.560949
4662.000000	49.623096
4660.000000	49.683833
4658.000000	49.744673
4656.000000	49.805735
4654.000000	49.867119
4652.000000	49.927308
4650.000000	49.988874
4648.000000	50.050571
4646.000000	50.111836
4644.000000	50.171530
4642.000000	50.232483
4640.000000	50.293809
4638.000000	50.355358
4636.000000	50.416099
4634.000000	50.477781
4632.000000	50.539077
4630.000000	50.600670
4628.000000	50.661602
4626.000000	50.723595
4624.000000	50.784915
4622.000000	50.847064
4620.000000	50.909026
4618.000000	50.970873
4616.000000	51.031425
4614.000000	51.095299
4612.000000	51.160930
4610.000000	51.226554
4608.000000	51.290610
4606.000000	51.355725
4604.000000	51.420722
4602.000000	51.486380
4600.000000	51.550933
4598.000000	51.615903
4596.000000	51.680534
4594.000000	51.744809
4592.000000	51.807796
4590.000000	51.872941
4588.000000	51.938680
4586.000000	52.003717
4584.000000	52.067134
4582.000000	52.131088
4580.000000	52.194367
4578.000000	52.258312
4576.000000	52.322465
4574.000000	52.387280
4572.000000	52.450796
4570.000000	52.514150
4568.000000	52.576713
4566.000000	52.640810
4564.000000	52.704534
4562.000000	52.768114
4560.000000	52.831555
4558.000000	52.895861
4556.000000	52.958073
4554.000000	53.020504
4552.000000	53.083263
4550.000000	53.146281
4548.000000	53.208279
4546.000000	53.271809
4544.000000	53.334722
4542.000000	53.396772
4540.000000	53.458065
4538.000000	53.520924
4536.000000	53.583856
4534.000000	53.647555
4532.000000	53.710837
4530.000000	53.774496
4528.000000	53.837007
4526.000000	53.900277
4524.000000	53.963785
4522.000000	54.028116
4520.000000	54.092460
4518.000000	54.158129
4516.000000	54.222586
4514.000000	54.287345
4512.000000	54.352227
4510.000000	54.418154
4508.000000	54.483489
4506.000000	54.549400
4504.000000	54.614212
4502.000000	54.679378
4500.000000	54.744912
4498.000000	54.811602
4496.000000	54.876688
4494.000000	54.942263
4492.000000	55.007786
4490.000000	55.073108
4488.000000	55.137277
4486.000000	55.203054
4484.000000	55.268169
4482.000000	55.332476
4480.000000	55.395492
4478.000000	55.459398
4476.000000	55.523277
4474.000000	55.587290
4472.000000	55.650621
4470.000000	55.714884
4468.000000	55.777542
4466.000000	55.840214
4464.000000	55.903688
4462.000000	55.967587
4460.000000	56.029661
4458.000000	56.091347
4456.000000	56.152130
4454.000000	56.214983
4452.000000	56.277838
4450.000000	56.339937
4448.000000	56.401406
4446.000000	56.464347
4444.000000	56.527188
4442.000000	56.590771
4440.000000	56.653130
4438.000000	56.715451
4436.000000	56.777844
4434.000000	56.841451
4432.000000	56.904045
4430.000000	56.966657
4428.000000	57.029788
4426.000000	57.095285
4424.000000	57.159798
4422.000000	57.223107
4420.000000	57.285439
4418.000000	57.349543
4416.000000	57.414469
4414.000000	57.480657
4412.000000	57.545742
4410.000000	57.610157
4408.000000	57.673427
4406.000000	57.738099
4404.000000	57.803143
4402.000000	57.868071
4400.000000	57.931532
4398.000000	57.995557
4396.000000	58.058405
4394.000000	58.121101
4392.000000	58.183868
4390.000000	58.247749
4388.000000	58.309931
4386.000000	58.371568
4384.000000	58.433404
4382.000000	58.497164
4380.000000	58.559389
4378.000000	58.619817
4376.000000	58.678444
4374.000000	58.738286
4372.000000	58.798640
4370.000000	58.859716
4368.000000	58.919942
4366.000000	58.980569
4364.000000	59.040794
4362.000000	59.101713
4360.000000	59.162288
4358.000000	59.224541
4356.000000	59.287392
4354.000000	59.350702
4352.000000	59.413262
4350.000000	59.477038
4348.000000	59.541027
4346.000000	59.605275
4344.000000	59.668320
4342.000000	59.732581
4340.000000	59.796254
4338.000000	59.859097
4336.000000	59.921634
4334.000000	59.986111
4332.000000	60.050217
4330.000000	60.114526
4328.000000	60.178416
4326.000000	60.243588
4324.000000	60.309869
4322.000000	60.377771
4320.000000	60.444529
4318.000000	60.511710
4316.000000	60.579349
4314.000000	60.647897
4312.000000	60.715557
4310.000000	60.783432
4308.000000	60.849686
4306.000000	60.916224
4304.000000	60.982686
4302.000000	61.049133
4300.000000	61.114298
4298.000000	61.180782
4296.000000	61.246993
4294.000000	61.311907
4292.000000	61.375172
