PE IR       SUBTECH     SPECTRUM    ASCII       PEDS        4.00        
   -1
TE109A_071_140K_BG.ASC
20/04/21
19:48:42.00
20/04/21
19:48:42.00
Administrator
TE109A, Tuesday, April 21 2020, 071.
1000.000000
#HDR
-1
-1
#GR
cm-1
EGY
1.0
0.0
6000.000000
-2.000000
2501
8
105.382206
10.910621
#DATA
6000.000000	16.486558
5998.000000	16.515880
5996.000000	16.546516
5994.000000	16.579988
5992.000000	16.614364
5990.000000	16.647959
5988.000000	16.680247
5986.000000	16.714200
5984.000000	16.748040
5982.000000	16.782735
5980.000000	16.815667
5978.000000	16.848248
5976.000000	16.881476
5974.000000	16.914886
5972.000000	16.949667
5970.000000	16.983482
5968.000000	17.015780
5966.000000	17.048645
5964.000000	17.082439
5962.000000	17.117700
5960.000000	17.152670
5958.000000	17.186773
5956.000000	17.220517
5954.000000	17.254374
5952.000000	17.286889
5950.000000	17.321067
5948.000000	17.356254
5946.000000	17.390762
5944.000000	17.423196
5942.000000	17.456606
5940.000000	17.492178
5938.000000	17.528317
5936.000000	17.561764
5934.000000	17.595715
5932.000000	17.630087
5930.000000	17.664741
5928.000000	17.697961
5926.000000	17.731617
5924.000000	17.767183
5922.000000	17.802136
5920.000000	17.837127
5918.000000	17.872785
5916.000000	17.909997
5914.000000	17.947182
5912.000000	17.981719
5910.000000	18.016254
5908.000000	18.051565
5906.000000	18.089087
5904.000000	18.126243
5902.000000	18.162443
5900.000000	18.198222
5898.000000	18.235610
5896.000000	18.274352
5894.000000	18.312064
5892.000000	18.347941
5890.000000	18.382237
5888.000000	18.416956
5886.000000	18.452660
5884.000000	18.489335
5882.000000	18.526602
5880.000000	18.562529
5878.000000	18.599250
5876.000000	18.634657
5874.000000	18.670456
5872.000000	18.705857
5870.000000	18.741498
5868.000000	18.778098
5866.000000	18.815222
5864.000000	18.852839
5862.000000	18.890722
5860.000000	18.929092
5858.000000	18.967155
5856.000000	19.006145
5854.000000	19.045024
5852.000000	19.083313
5850.000000	19.122371
5848.000000	19.161430
5846.000000	19.201361
5844.000000	19.240976
5842.000000	19.280542
5840.000000	19.319913
5838.000000	19.360850
5836.000000	19.402466
5834.000000	19.445145
5832.000000	19.487373
5830.000000	19.529419
5828.000000	19.571493
5826.000000	19.611806
5824.000000	19.652094
5822.000000	19.693106
5820.000000	19.734351
5818.000000	19.775555
5816.000000	19.815652
5814.000000	19.855758
5812.000000	19.896267
5810.000000	19.936940
5808.000000	19.978240
5806.000000	20.019848
5804.000000	20.061711
5802.000000	20.102654
5800.000000	20.141552
5798.000000	20.180431
5796.000000	20.219753
5794.000000	20.261059
5792.000000	20.303122
5790.000000	20.345517
5788.000000	20.388320
5786.000000	20.430852
5784.000000	20.473404
5782.000000	20.515031
5780.000000	20.555414
5778.000000	20.595363
5776.000000	20.635445
5774.000000	20.676901
5772.000000	20.719067
5770.000000	20.761937
5768.000000	20.803801
5766.000000	20.846347
5764.000000	20.888989
5762.000000	20.931277
5760.000000	20.971995
5758.000000	21.012912
5756.000000	21.054157
5754.000000	21.095873
5752.000000	21.137610
5750.000000	21.180028
5748.000000	21.222378
5746.000000	21.263275
5744.000000	21.304025
5742.000000	21.345222
5740.000000	21.387481
5738.000000	21.429851
5736.000000	21.470957
5734.000000	21.510479
5732.000000	21.549748
5730.000000	21.589970
5728.000000	21.630756
5726.000000	21.671723
5724.000000	21.712705
5722.000000	21.754486
5720.000000	21.796866
5718.000000	21.838960
5716.000000	21.881476
5714.000000	21.923875
5712.000000	21.967107
5710.000000	22.011555
5708.000000	22.055998
5706.000000	22.099679
5704.000000	22.142756
5702.000000	22.187539
5700.000000	22.233376
5698.000000	22.278991
5696.000000	22.323925
5694.000000	22.367624
5692.000000	22.411580
5690.000000	22.457812
5688.000000	22.505421
5686.000000	22.552530
5684.000000	22.596125
5682.000000	22.638241
5680.000000	22.682008
5678.000000	22.728227
5676.000000	22.775505
5674.000000	22.821482
5672.000000	22.866366
5670.000000	22.912299
5668.000000	22.957981
5666.000000	23.003278
5664.000000	23.047168
5662.000000	23.092224
5660.000000	23.138171
5658.000000	23.184839
5656.000000	23.230496
5654.000000	23.275552
5652.000000	23.320965
5650.000000	23.366686
5648.000000	23.411683
5646.000000	23.457095
5644.000000	23.502697
5642.000000	23.549369
5640.000000	23.595390
5638.000000	23.640272
5636.000000	23.685008
5634.000000	23.729053
5632.000000	23.774780
5630.000000	23.820611
5628.000000	23.865600
5626.000000	23.910197
5624.000000	23.954510
5622.000000	24.000759
5620.000000	24.047565
5618.000000	24.095306
5616.000000	24.141062
5614.000000	24.184770
5612.000000	24.228659
5610.000000	24.274401
5608.000000	24.321890
5606.000000	24.368379
5604.000000	24.413456
5602.000000	24.459230
5600.000000	24.504138
5598.000000	24.549260
5596.000000	24.594678
5594.000000	24.640452
5592.000000	24.687687
5590.000000	24.736004
5588.000000	24.783689
5586.000000	24.830057
5584.000000	24.875604
5582.000000	24.923387
5580.000000	24.970967
5578.000000	25.017357
5576.000000	25.064523
5574.000000	25.113037
5572.000000	25.162624
5570.000000	25.211070
5568.000000	25.259554
5566.000000	25.307737
5564.000000	25.354403
5562.000000	25.400289
5560.000000	25.446562
5558.000000	25.494878
5556.000000	25.543526
5554.000000	25.591412
5552.000000	25.638053
5550.000000	25.685077
5548.000000	25.732449
5546.000000	25.780602
5544.000000	25.828662
5542.000000	25.876542
5540.000000	25.923142
5538.000000	25.969522
5536.000000	26.017301
5534.000000	26.065813
5532.000000	26.113684
5530.000000	26.161471
5528.000000	26.209581
5526.000000	26.257198
5524.000000	26.302561
5522.000000	26.348118
5520.000000	26.394431
5518.000000	26.442085
5516.000000	26.491230
5514.000000	26.540822
5512.000000	26.588440
5510.000000	26.634560
5508.000000	26.680517
5506.000000	26.728668
5504.000000	26.778235
5502.000000	26.827965
5500.000000	26.877462
5498.000000	26.923833
5496.000000	26.967073
5494.000000	27.009483
5492.000000	27.055316
5490.000000	27.106371
5488.000000	27.160490
5486.000000	27.214601
5484.000000	27.266565
5482.000000	27.316110
5480.000000	27.361102
5478.000000	27.402923
5476.000000	27.447685
5474.000000	27.498349
5472.000000	27.551775
5470.000000	27.601962
5468.000000	27.650504
5466.000000	27.699341
5464.000000	27.746779
5462.000000	27.794761
5460.000000	27.843906
5458.000000	27.896933
5456.000000	27.951332
5454.000000	28.002820
5452.000000	28.048057
5450.000000	28.089383
5448.000000	28.132201
5446.000000	28.178949
5444.000000	28.228248
5442.000000	28.280835
5440.000000	28.332737
5438.000000	28.380545
5436.000000	28.427493
5434.000000	28.475778
5432.000000	28.522652
5430.000000	28.569245
5428.000000	28.621975
5426.000000	28.681088
5424.000000	28.737654
5422.000000	28.788656
5420.000000	28.837206
5418.000000	28.880339
5416.000000	28.915706
5414.000000	28.952400
5412.000000	29.000054
5410.000000	29.059977
5408.000000	29.120356
5406.000000	29.175738
5404.000000	29.227468
5402.000000	29.278098
5400.000000	29.325601
5398.000000	29.366606
5396.000000	29.406636
5394.000000	29.455483
5392.000000	29.512934
5390.000000	29.569598
5388.000000	29.617421
5386.000000	29.665421
5384.000000	29.721379
5382.000000	29.777891
5380.000000	29.822624
5378.000000	29.862320
5376.000000	29.910725
5374.000000	29.971511
5372.000000	30.032599
5370.000000	30.087114
5368.000000	30.136220
5366.000000	30.185090
5364.000000	30.237022
5362.000000	30.290554
5360.000000	30.342927
5358.000000	30.389311
5356.000000	30.429022
5354.000000	30.472033
5352.000000	30.523768
5350.000000	30.578290
5348.000000	30.620964
5346.000000	30.661647
5344.000000	30.710493
5342.000000	30.763567
5340.000000	30.813925
5338.000000	30.866256
5336.000000	30.926281
5334.000000	30.986211
5332.000000	31.037954
5330.000000	31.084103
5328.000000	31.132576
5326.000000	31.188076
5324.000000	31.246201
5322.000000	31.300395
5320.000000	31.349903
5318.000000	31.398932
5316.000000	31.448973
5314.000000	31.500434
5312.000000	31.550312
5310.000000	31.596815
5308.000000	31.643253
5306.000000	31.694440
5304.000000	31.748296
5302.000000	31.801531
5300.000000	31.854384
5298.000000	31.908162
5296.000000	31.960217
5294.000000	32.007322
5292.000000	32.053013
5290.000000	32.103140
5288.000000	32.156701
5286.000000	32.210693
5284.000000	32.263408
5282.000000	32.318277
5280.000000	32.374135
5278.000000	32.428657
5276.000000	32.482167
5274.000000	32.534831
5272.000000	32.584888
5270.000000	32.633060
5268.000000	32.677050
5266.000000	32.719860
5264.000000	32.767683
5262.000000	32.825640
5260.000000	32.886956
5258.000000	32.939514
5256.000000	32.987696
5254.000000	33.038698
5252.000000	33.090806
5250.000000	33.138402
5248.000000	33.183856
5246.000000	33.235914
5244.000000	33.295141
5242.000000	33.356764
5240.000000	33.415182
5238.000000	33.469105
5236.000000	33.518932
5234.000000	33.567266
5232.000000	33.616342
5230.000000	33.665701
5228.000000	33.712159
5226.000000	33.761027
5224.000000	33.816090
5222.000000	33.873838
5220.000000	33.928083
5218.000000	33.981184
5216.000000	34.035656
5214.000000	34.088603
5212.000000	34.134497
5210.000000	34.174098
5208.000000	34.217042
5206.000000	34.273551
5204.000000	34.338610
5202.000000	34.400635
5200.000000	34.453818
5198.000000	34.505224
5196.000000	34.559218
5194.000000	34.615941
5192.000000	34.672269
5190.000000	34.725767
5188.000000	34.776040
5186.000000	34.827402
5184.000000	34.883505
5182.000000	34.943065
5180.000000	35.000001
5178.000000	35.053319
5176.000000	35.105344
5174.000000	35.159263
5172.000000	35.214952
5170.000000	35.271228
5168.000000	35.325211
5166.000000	35.377424
5164.000000	35.429946
5162.000000	35.484415
5160.000000	35.538670
5158.000000	35.593291
5156.000000	35.648207
5154.000000	35.703986
5152.000000	35.759247
5150.000000	35.814159
5148.000000	35.868772
5146.000000	35.922527
5144.000000	35.975495
5142.000000	36.028850
5140.000000	36.083898
5138.000000	36.139616
5136.000000	36.192905
5134.000000	36.246157
5132.000000	36.301024
5130.000000	36.356990
5128.000000	36.410668
5126.000000	36.462324
5124.000000	36.514781
5122.000000	36.569847
5120.000000	36.625429
5118.000000	36.680794
5116.000000	36.735713
5114.000000	36.789833
5112.000000	36.842361
5110.000000	36.895619
5108.000000	36.951131
5106.000000	37.007186
5104.000000	37.062661
5102.000000	37.118447
5100.000000	37.174632
5098.000000	37.230097
5096.000000	37.284382
5094.000000	37.340914
5092.000000	37.398520
5090.000000	37.455469
5088.000000	37.510682
5086.000000	37.567358
5084.000000	37.625355
5082.000000	37.683586
5080.000000	37.740713
5078.000000	37.796638
5076.000000	37.851506
5074.000000	37.908836
5072.000000	37.966639
5070.000000	38.022974
5068.000000	38.076963
5066.000000	38.132273
5064.000000	38.188486
5062.000000	38.244900
5060.000000	38.301288
5058.000000	38.359273
5056.000000	38.415635
5054.000000	38.470710
5052.000000	38.525365
5050.000000	38.581260
5048.000000	38.636359
5046.000000	38.692404
5044.000000	38.750358
5042.000000	38.807872
5040.000000	38.862612
5038.000000	38.916801
5036.000000	38.971328
5034.000000	39.027306
5032.000000	39.084322
5030.000000	39.141620
5028.000000	39.196815
5026.000000	39.251621
5024.000000	39.307881
5022.000000	39.366004
5020.000000	39.422633
5018.000000	39.478190
5016.000000	39.533697
5014.000000	39.590468
5012.000000	39.646158
5010.000000	39.702020
5008.000000	39.758295
5006.000000	39.814410
5004.000000	39.871021
5002.000000	39.930002
5000.000000	39.989679
4998.000000	40.047927
4996.000000	40.104734
4994.000000	40.161463
4992.000000	40.217919
4990.000000	40.275735
4988.000000	40.334781
4986.000000	40.395647
4984.000000	40.455449
4982.000000	40.513648
4980.000000	40.572121
4978.000000	40.631703
4976.000000	40.689698
4974.000000	40.746407
4972.000000	40.804164
4970.000000	40.862819
4968.000000	40.919851
4966.000000	40.975688
4964.000000	41.031441
4962.000000	41.088844
4960.000000	41.149168
4958.000000	41.208664
4956.000000	41.264020
4954.000000	41.318485
4952.000000	41.375472
4950.000000	41.433566
4948.000000	41.489995
4946.000000	41.546770
4944.000000	41.603678
4942.000000	41.660268
4940.000000	41.715988
4938.000000	41.770620
4936.000000	41.825572
4934.000000	41.883222
4932.000000	41.941341
4930.000000	41.996476
4928.000000	42.051226
4926.000000	42.109289
4924.000000	42.166801
4922.000000	42.223474
4920.000000	42.281715
4918.000000	42.342821
4916.000000	42.400999
4914.000000	42.457272
4912.000000	42.513387
4910.000000	42.571639
4908.000000	42.631147
4906.000000	42.691067
4904.000000	42.749854
4902.000000	42.806354
4900.000000	42.862721
4898.000000	42.921922
4896.000000	42.982875
4894.000000	43.042832
4892.000000	43.101210
4890.000000	43.160744
4888.000000	43.220801
4886.000000	43.279641
4884.000000	43.337372
4882.000000	43.396899
4880.000000	43.457384
4878.000000	43.517471
4876.000000	43.576278
4874.000000	43.635461
4872.000000	43.693952
4870.000000	43.752700
4868.000000	43.811535
4866.000000	43.870366
4864.000000	43.927566
4862.000000	43.984506
4860.000000	44.041888
4858.000000	44.100553
4856.000000	44.159222
4854.000000	44.217552
4852.000000	44.275294
4850.000000	44.333481
4848.000000	44.390840
4846.000000	44.447655
4844.000000	44.505095
4842.000000	44.564312
4840.000000	44.622791
4838.000000	44.680093
4836.000000	44.736674
4834.000000	44.794337
4832.000000	44.850833
4830.000000	44.906100
4828.000000	44.961848
4826.000000	45.021128
4824.000000	45.081699
4822.000000	45.141446
4820.000000	45.200149
4818.000000	45.259330
4816.000000	45.318232
4814.000000	45.376887
4812.000000	45.435859
4810.000000	45.495543
4808.000000	45.553754
4806.000000	45.611654
4804.000000	45.671166
4802.000000	45.733147
4800.000000	45.793125
4798.000000	45.852707
4796.000000	45.913424
4794.000000	45.974097
4792.000000	46.032898
4790.000000	46.092590
4788.000000	46.153372
4786.000000	46.214541
4784.000000	46.275333
4782.000000	46.336038
4780.000000	46.396011
4778.000000	46.455535
4776.000000	46.514759
4774.000000	46.574901
4772.000000	46.634464
4770.000000	46.693667
4768.000000	46.751821
4766.000000	46.810055
4764.000000	46.869242
4762.000000	46.929632
4760.000000	46.989211
4758.000000	47.048364
4756.000000	47.106209
4754.000000	47.163905
4752.000000	47.223598
4750.000000	47.284516
4748.000000	47.342790
4746.000000	47.399879
4744.000000	47.456737
4742.000000	47.514263
4740.000000	47.571566
4738.000000	47.629203
4736.000000	47.685912
4734.000000	47.744043
4732.000000	47.802780
4730.000000	47.861216
4728.000000	47.920180
4726.000000	47.981293
4724.000000	48.040993
4722.000000	48.099704
4720.000000	48.158885
4718.000000	48.218936
4716.000000	48.279814
4714.000000	48.342457
4712.000000	48.404022
4710.000000	48.465537
4708.000000	48.529475
4706.000000	48.593783
4704.000000	48.656300
4702.000000	48.718286
4700.000000	48.780031
4698.000000	48.842129
4696.000000	48.904394
4694.000000	48.966603
4692.000000	49.027638
4690.000000	49.088115
4688.000000	49.148658
4686.000000	49.210813
4684.000000	49.273152
4682.000000	49.336470
4680.000000	49.399839
4678.000000	49.461885
4676.000000	49.523121
4674.000000	49.585382
4672.000000	49.646173
4670.000000	49.706617
4668.000000	49.767317
4666.000000	49.827871
4664.000000	49.887513
4662.000000	49.947324
4660.000000	50.006381
4658.000000	50.067702
4656.000000	50.130951
4654.000000	50.193381
4652.000000	50.253265
4650.000000	50.314016
4648.000000	50.374594
4646.000000	50.434873
4644.000000	50.495529
4642.000000	50.556673
4640.000000	50.617355
4638.000000	50.679238
4636.000000	50.740395
4634.000000	50.800677
4632.000000	50.861511
4630.000000	50.923321
4628.000000	50.984214
4626.000000	51.045028
4624.000000	51.104724
4622.000000	51.164377
4620.000000	51.225233
4618.000000	51.287866
4616.000000	51.351129
4614.000000	51.415887
4612.000000	51.480800
4610.000000	51.545133
4608.000000	51.609162
4606.000000	51.674560
4604.000000	51.739641
4602.000000	51.804189
4600.000000	51.868343
4598.000000	51.933347
4596.000000	51.998445
4594.000000	52.064720
4592.000000	52.130699
4590.000000	52.195173
4588.000000	52.258135
4586.000000	52.321141
4584.000000	52.383776
4582.000000	52.448206
4580.000000	52.514123
4578.000000	52.579237
4576.000000	52.641618
4574.000000	52.704705
4572.000000	52.768803
4570.000000	52.831833
4568.000000	52.893731
4566.000000	52.957592
4564.000000	53.021422
4562.000000	53.084548
4560.000000	53.147220
4558.000000	53.209715
4556.000000	53.272576
4554.000000	53.336610
4552.000000	53.399420
4550.000000	53.461368
4548.000000	53.522484
4546.000000	53.584157
4544.000000	53.646229
4542.000000	53.709007
4540.000000	53.772508
4538.000000	53.837022
4536.000000	53.900218
4534.000000	53.963294
4532.000000	54.025996
4530.000000	54.088590
4528.000000	54.151302
4526.000000	54.213295
4524.000000	54.274470
4522.000000	54.340039
4520.000000	54.407431
4518.000000	54.471802
4516.000000	54.534658
4514.000000	54.598950
4512.000000	54.663517
4510.000000	54.727754
4508.000000	54.792306
4506.000000	54.858058
4504.000000	54.923408
4502.000000	54.988543
4500.000000	55.054775
4498.000000	55.120475
4496.000000	55.184069
4494.000000	55.249361
4492.000000	55.316114
4490.000000	55.383168
4488.000000	55.448992
4486.000000	55.514465
4484.000000	55.579114
4482.000000	55.643344
4480.000000	55.706890
4478.000000	55.770336
4476.000000	55.832773
4474.000000	55.895812
4472.000000	55.958902
4470.000000	56.022633
4468.000000	56.085992
4466.000000	56.148662
4464.000000	56.210856
4462.000000	56.274082
4460.000000	56.336193
4458.000000	56.397435
4456.000000	56.457893
4454.000000	56.519610
4452.000000	56.582732
4450.000000	56.645903
4448.000000	56.707376
4446.000000	56.769091
4444.000000	56.832770
4442.000000	56.897468
4440.000000	56.959888
4438.000000	57.021827
4436.000000	57.084127
4434.000000	57.145595
4432.000000	57.206099
4430.000000	57.268516
4428.000000	57.333470
4426.000000	57.398976
4424.000000	57.461618
4422.000000	57.523134
4420.000000	57.585868
4418.000000	57.650880
4416.000000	57.716593
4414.000000	57.782973
4412.000000	57.849061
4410.000000	57.914470
4408.000000	57.978068
4406.000000	58.040259
4404.000000	58.101534
4402.000000	58.164931
4400.000000	58.230039
4398.000000	58.295541
4396.000000	58.359786
4394.000000	58.423520
4392.000000	58.486249
4390.000000	58.548166
4388.000000	58.609495
4386.000000	58.671193
4384.000000	58.732219
4382.000000	58.792781
4380.000000	58.853776
4378.000000	58.916168
4376.000000	58.977464
4374.000000	59.037880
4372.000000	59.098355
4370.000000	59.159297
4368.000000	59.220108
4366.000000	59.280001
4364.000000	59.338890
4362.000000	59.398979
4360.000000	59.460174
4358.000000	59.522666
4356.000000	59.583786
4354.000000	59.644576
4352.000000	59.708601
4350.000000	59.774536
4348.000000	59.838342
4346.000000	59.900920
4344.000000	59.962508
4342.000000	60.024246
4340.000000	60.086934
4338.000000	60.151192
4336.000000	60.215555
4334.000000	60.278662
4332.000000	60.340602
4330.000000	60.404523
4328.000000	60.470922
4326.000000	60.537994
4324.000000	60.604362
4322.000000	60.670343
4320.000000	60.736495
4318.000000	60.804182
4316.000000	60.872032
4314.000000	60.939980
4312.000000	61.008092
4310.000000	61.075457
4308.000000	61.141563
4306.000000	61.207909
4304.000000	61.273658
4302.000000	61.339701
4300.000000	61.406293
4298.000000	61.472731
4296.000000	61.537366
4294.000000	61.601576
4292.000000	61.665747
