PE IR       SUBTECH     SPECTRUM    ASCII       PEDS        4.00        
   -1
TE109A_065_130K_BG.ASC
20/04/21
18:41:35.00
20/04/21
18:41:35.00
Administrator
TE109A, Tuesday, April 21 2020, 065.
1000.000000
#HDR
-1
-1
#GR
cm-1
EGY
1.0
0.0
6000.000000
-2.000000
2501
8
105.290010
10.941474
#DATA
6000.000000	16.329004
5998.000000	16.361440
5996.000000	16.394014
5994.000000	16.427684
5992.000000	16.461592
5990.000000	16.494772
5988.000000	16.527560
5986.000000	16.560329
5984.000000	16.592010
5982.000000	16.623348
5980.000000	16.655489
5978.000000	16.689678
5976.000000	16.724739
5974.000000	16.758711
5972.000000	16.790710
5970.000000	16.822641
5968.000000	16.855266
5966.000000	16.889501
5964.000000	16.924735
5962.000000	16.959770
5960.000000	16.994523
5958.000000	17.028904
5956.000000	17.062906
5954.000000	17.096196
5952.000000	17.128705
5950.000000	17.162731
5948.000000	17.196808
5946.000000	17.230385
5944.000000	17.262803
5942.000000	17.295778
5940.000000	17.330285
5938.000000	17.364509
5936.000000	17.398194
5934.000000	17.432536
5932.000000	17.465530
5930.000000	17.497905
5928.000000	17.529522
5926.000000	17.564965
5924.000000	17.602588
5922.000000	17.639680
5920.000000	17.675476
5918.000000	17.709622
5916.000000	17.744105
5914.000000	17.779886
5912.000000	17.815004
5910.000000	17.851089
5908.000000	17.887084
5906.000000	17.924559
5904.000000	17.963479
5902.000000	18.001556
5900.000000	18.037768
5898.000000	18.073317
5896.000000	18.109161
5894.000000	18.145613
5892.000000	18.181436
5890.000000	18.217316
5888.000000	18.253712
5886.000000	18.289033
5884.000000	18.323725
5882.000000	18.358786
5880.000000	18.394735
5878.000000	18.430840
5876.000000	18.465460
5874.000000	18.501599
5872.000000	18.538619
5870.000000	18.576225
5868.000000	18.613256
5866.000000	18.648951
5864.000000	18.684950
5862.000000	18.722532
5860.000000	18.760270
5858.000000	18.798143
5856.000000	18.834716
5854.000000	18.872833
5852.000000	18.912909
5850.000000	18.952969
5848.000000	18.992085
5846.000000	19.029159
5844.000000	19.066605
5842.000000	19.107014
5840.000000	19.149641
5838.000000	19.192654
5836.000000	19.234754
5834.000000	19.276885
5832.000000	19.318860
5830.000000	19.360359
5828.000000	19.400586
5826.000000	19.440842
5824.000000	19.481375
5822.000000	19.522529
5820.000000	19.563868
5818.000000	19.603682
5816.000000	19.643025
5814.000000	19.684096
5812.000000	19.726056
5810.000000	19.768404
5808.000000	19.808562
5806.000000	19.848391
5804.000000	19.888250
5802.000000	19.928087
5800.000000	19.968531
5798.000000	20.010008
5796.000000	20.050501
5794.000000	20.090757
5792.000000	20.131020
5790.000000	20.172151
5788.000000	20.213906
5786.000000	20.255017
5784.000000	20.296331
5782.000000	20.337498
5780.000000	20.377494
5778.000000	20.417510
5776.000000	20.458106
5774.000000	20.499622
5772.000000	20.542257
5770.000000	20.585531
5768.000000	20.628683
5766.000000	20.671898
5764.000000	20.713337
5762.000000	20.755213
5760.000000	20.796320
5758.000000	20.836875
5756.000000	20.878201
5754.000000	20.920521
5752.000000	20.962534
5750.000000	21.002990
5748.000000	21.043821
5746.000000	21.087231
5744.000000	21.130718
5742.000000	21.172000
5740.000000	21.211149
5738.000000	21.250812
5736.000000	21.290866
5734.000000	21.329746
5732.000000	21.367750
5730.000000	21.406935
5728.000000	21.447654
5726.000000	21.490143
5724.000000	21.532017
5722.000000	21.573506
5720.000000	21.615273
5718.000000	21.657831
5716.000000	21.702097
5714.000000	21.745633
5712.000000	21.789052
5710.000000	21.832645
5708.000000	21.877261
5706.000000	21.922067
5704.000000	21.965984
5702.000000	22.009531
5700.000000	22.052054
5698.000000	22.095102
5696.000000	22.139994
5694.000000	22.186166
5692.000000	22.232422
5690.000000	22.277259
5688.000000	22.321386
5686.000000	22.366192
5684.000000	22.412303
5682.000000	22.459834
5680.000000	22.504757
5678.000000	22.548267
5676.000000	22.592515
5674.000000	22.639828
5672.000000	22.687220
5670.000000	22.732505
5668.000000	22.776385
5666.000000	22.820332
5664.000000	22.865311
5662.000000	22.911144
5660.000000	22.956578
5658.000000	23.002564
5656.000000	23.047764
5654.000000	23.092076
5652.000000	23.136360
5650.000000	23.182345
5648.000000	23.229091
5646.000000	23.275578
5644.000000	23.319663
5642.000000	23.363734
5640.000000	23.409273
5638.000000	23.454494
5636.000000	23.499167
5634.000000	23.543719
5632.000000	23.588977
5630.000000	23.635486
5628.000000	23.681292
5626.000000	23.727012
5624.000000	23.771705
5622.000000	23.815340
5620.000000	23.859363
5618.000000	23.904308
5616.000000	23.949433
5614.000000	23.994495
5612.000000	24.040567
5610.000000	24.086620
5608.000000	24.131950
5606.000000	24.178234
5604.000000	24.224836
5602.000000	24.272453
5600.000000	24.317991
5598.000000	24.362477
5596.000000	24.406454
5594.000000	24.452666
5592.000000	24.500412
5590.000000	24.547909
5588.000000	24.595332
5586.000000	24.643071
5584.000000	24.690359
5582.000000	24.736587
5580.000000	24.782439
5578.000000	24.829374
5576.000000	24.876485
5574.000000	24.924198
5572.000000	24.972088
5570.000000	25.019616
5568.000000	25.066177
5566.000000	25.112802
5564.000000	25.159987
5562.000000	25.207974
5560.000000	25.256635
5558.000000	25.304830
5556.000000	25.351644
5554.000000	25.397934
5552.000000	25.445182
5550.000000	25.493586
5548.000000	25.542133
5546.000000	25.590093
5544.000000	25.637769
5542.000000	25.685477
5540.000000	25.732291
5538.000000	25.779117
5536.000000	25.826721
5534.000000	25.875266
5532.000000	25.923877
5530.000000	25.970642
5528.000000	26.016451
5526.000000	26.062428
5524.000000	26.109492
5522.000000	26.158454
5520.000000	26.206868
5518.000000	26.253755
5516.000000	26.299758
5514.000000	26.347462
5512.000000	26.394367
5510.000000	26.439069
5508.000000	26.484061
5506.000000	26.532834
5504.000000	26.582945
5502.000000	26.631127
5500.000000	26.678729
5498.000000	26.725201
5496.000000	26.769769
5494.000000	26.813858
5492.000000	26.860620
5490.000000	26.912062
5488.000000	26.965139
5486.000000	27.017992
5484.000000	27.069056
5482.000000	27.118908
5480.000000	27.164621
5478.000000	27.206324
5476.000000	27.250388
5474.000000	27.301078
5472.000000	27.355296
5470.000000	27.407182
5468.000000	27.457714
5466.000000	27.506613
5464.000000	27.552270
5462.000000	27.597313
5460.000000	27.647464
5458.000000	27.702640
5456.000000	27.758120
5454.000000	27.808998
5452.000000	27.853647
5450.000000	27.893508
5448.000000	27.933194
5446.000000	27.978472
5444.000000	28.028538
5442.000000	28.082177
5440.000000	28.135106
5438.000000	28.183832
5436.000000	28.229956
5434.000000	28.275898
5432.000000	28.321891
5430.000000	28.370695
5428.000000	28.423105
5426.000000	28.480106
5424.000000	28.536005
5422.000000	28.589831
5420.000000	28.639946
5418.000000	28.680447
5416.000000	28.715255
5414.000000	28.753462
5412.000000	28.802662
5410.000000	28.861111
5408.000000	28.920029
5406.000000	28.976225
5404.000000	29.028715
5402.000000	29.079564
5400.000000	29.126627
5398.000000	29.168924
5396.000000	29.209746
5394.000000	29.257368
5392.000000	29.312580
5390.000000	29.369028
5388.000000	29.419063
5386.000000	29.467965
5384.000000	29.521243
5382.000000	29.575401
5380.000000	29.621650
5378.000000	29.664335
5376.000000	29.713888
5374.000000	29.774119
5372.000000	29.834745
5370.000000	29.889106
5368.000000	29.937943
5366.000000	29.984742
5364.000000	30.033696
5362.000000	30.085627
5360.000000	30.138166
5358.000000	30.184866
5356.000000	30.225540
5354.000000	30.270485
5352.000000	30.322843
5350.000000	30.375830
5348.000000	30.418436
5346.000000	30.459353
5344.000000	30.507982
5342.000000	30.559559
5340.000000	30.607960
5338.000000	30.659247
5336.000000	30.718723
5334.000000	30.779600
5332.000000	30.831480
5330.000000	30.877013
5328.000000	30.924816
5326.000000	30.980414
5324.000000	31.038769
5322.000000	31.093316
5320.000000	31.144049
5318.000000	31.194927
5316.000000	31.246164
5314.000000	31.296715
5312.000000	31.344397
5310.000000	31.389034
5308.000000	31.436652
5306.000000	31.490061
5304.000000	31.545410
5302.000000	31.598169
5300.000000	31.649725
5298.000000	31.701596
5296.000000	31.752393
5294.000000	31.799484
5292.000000	31.845959
5290.000000	31.896460
5288.000000	31.950380
5286.000000	32.005010
5284.000000	32.058442
5282.000000	32.112769
5280.000000	32.167477
5278.000000	32.221601
5276.000000	32.274654
5274.000000	32.326515
5272.000000	32.375765
5270.000000	32.424138
5268.000000	32.467746
5266.000000	32.508567
5264.000000	32.555501
5262.000000	32.614838
5260.000000	32.677009
5258.000000	32.729659
5256.000000	32.777009
5254.000000	32.828749
5252.000000	32.880114
5250.000000	32.927645
5248.000000	32.973899
5246.000000	33.026119
5244.000000	33.082985
5242.000000	33.141301
5240.000000	33.200098
5238.000000	33.255979
5236.000000	33.307669
5234.000000	33.356027
5232.000000	33.405075
5230.000000	33.454368
5228.000000	33.500487
5226.000000	33.549218
5224.000000	33.604868
5222.000000	33.664216
5220.000000	33.718919
5218.000000	33.771631
5216.000000	33.825517
5214.000000	33.878328
5212.000000	33.925011
5210.000000	33.965861
5208.000000	34.008070
5206.000000	34.061707
5204.000000	34.125369
5202.000000	34.187751
5200.000000	34.240992
5198.000000	34.292649
5196.000000	34.347556
5194.000000	34.403491
5192.000000	34.457102
5190.000000	34.510044
5188.000000	34.562184
5186.000000	34.614544
5184.000000	34.668809
5182.000000	34.725652
5180.000000	34.780800
5178.000000	34.835246
5176.000000	34.890929
5174.000000	34.945815
5172.000000	34.999237
5170.000000	35.053314
5168.000000	35.108632
5166.000000	35.162180
5164.000000	35.215555
5162.000000	35.270932
5160.000000	35.325969
5158.000000	35.379874
5156.000000	35.433524
5154.000000	35.488538
5152.000000	35.542813
5150.000000	35.597561
5148.000000	35.652742
5146.000000	35.706776
5144.000000	35.759528
5142.000000	35.813373
5140.000000	35.869825
5138.000000	35.925237
5136.000000	35.977740
5134.000000	36.030233
5132.000000	36.083716
5130.000000	36.137089
5128.000000	36.189549
5126.000000	36.244585
5124.000000	36.300686
5122.000000	36.354858
5120.000000	36.406533
5118.000000	36.459799
5116.000000	36.514992
5114.000000	36.570664
5112.000000	36.625836
5110.000000	36.681732
5108.000000	36.736395
5106.000000	36.790101
5104.000000	36.843601
5102.000000	36.898498
5100.000000	36.953642
5098.000000	37.010087
5096.000000	37.066865
5094.000000	37.122937
5092.000000	37.178479
5090.000000	37.235925
5088.000000	37.294031
5086.000000	37.350570
5084.000000	37.406438
5082.000000	37.463248
5080.000000	37.519487
5078.000000	37.574437
5076.000000	37.628899
5074.000000	37.685243
5072.000000	37.742715
5070.000000	37.800978
5068.000000	37.857408
5066.000000	37.912104
5064.000000	37.967441
5062.000000	38.025607
5060.000000	38.082822
5058.000000	38.138131
5056.000000	38.193042
5054.000000	38.248797
5052.000000	38.303636
5050.000000	38.358815
5048.000000	38.414313
5046.000000	38.470312
5044.000000	38.525962
5042.000000	38.582347
5040.000000	38.638412
5038.000000	38.694479
5036.000000	38.750178
5034.000000	38.805504
5032.000000	38.860858
5030.000000	38.917963
5028.000000	38.975638
5026.000000	39.032215
5024.000000	39.086033
5022.000000	39.140794
5020.000000	39.196736
5018.000000	39.252914
5016.000000	39.307896
5014.000000	39.364050
5012.000000	39.421206
5010.000000	39.477991
5008.000000	39.535145
5006.000000	39.593748
5004.000000	39.652260
5002.000000	39.709383
5000.000000	39.766044
4998.000000	39.823725
4996.000000	39.880112
4994.000000	39.935423
4992.000000	39.991556
4990.000000	40.050899
4988.000000	40.110494
4986.000000	40.168951
4984.000000	40.227034
4982.000000	40.284791
4980.000000	40.341963
4978.000000	40.399865
4976.000000	40.459111
4974.000000	40.517650
4972.000000	40.574192
4970.000000	40.630680
4968.000000	40.688370
4966.000000	40.746866
4964.000000	40.804467
4962.000000	40.861806
4960.000000	40.918486
4958.000000	40.975080
4956.000000	41.032488
4954.000000	41.090398
4952.000000	41.146651
4950.000000	41.202329
4948.000000	41.258831
4946.000000	41.316427
4944.000000	41.373554
4942.000000	41.430970
4940.000000	41.487887
4938.000000	41.544304
4936.000000	41.600258
4934.000000	41.655237
4932.000000	41.711209
4930.000000	41.768572
4928.000000	41.825179
4926.000000	41.880869
4924.000000	41.937895
4922.000000	41.996423
4920.000000	42.052638
4918.000000	42.108571
4916.000000	42.165717
4914.000000	42.224031
4912.000000	42.281648
4910.000000	42.339968
4908.000000	42.399082
4906.000000	42.458022
4904.000000	42.514863
4902.000000	42.571767
4900.000000	42.629998
4898.000000	42.690315
4896.000000	42.751120
4894.000000	42.811681
4892.000000	42.869621
4890.000000	42.926626
4888.000000	42.985749
4886.000000	43.047562
4884.000000	43.107646
4882.000000	43.165134
4880.000000	43.222599
4878.000000	43.280713
4876.000000	43.338398
4874.000000	43.396926
4872.000000	43.456674
4870.000000	43.516757
4868.000000	43.575663
4866.000000	43.634241
4864.000000	43.691502
4862.000000	43.749357
4860.000000	43.806876
4858.000000	43.864547
4856.000000	43.921376
4854.000000	43.980313
4852.000000	44.039821
4850.000000	44.097115
4848.000000	44.152471
4846.000000	44.209883
4844.000000	44.267914
4842.000000	44.325498
4840.000000	44.383507
4838.000000	44.442032
4836.000000	44.498193
4834.000000	44.554237
4832.000000	44.610605
4830.000000	44.667698
4828.000000	44.725639
4826.000000	44.783671
4824.000000	44.840255
4822.000000	44.897890
4820.000000	44.957948
4818.000000	45.018009
4816.000000	45.076251
4814.000000	45.134111
4812.000000	45.192541
4810.000000	45.252269
4808.000000	45.312398
4806.000000	45.372608
4804.000000	45.432374
4802.000000	45.492006
4800.000000	45.551965
4798.000000	45.612626
4796.000000	45.673567
4794.000000	45.734327
4792.000000	45.793941
4790.000000	45.854457
4788.000000	45.915297
4786.000000	45.974496
4784.000000	46.032337
4782.000000	46.093484
4780.000000	46.154982
4778.000000	46.215012
4776.000000	46.274453
4774.000000	46.334261
4772.000000	46.392675
4770.000000	46.451375
4768.000000	46.510846
4766.000000	46.569498
4764.000000	46.627482
4762.000000	46.686202
4760.000000	46.744255
4758.000000	46.802667
4756.000000	46.861962
4754.000000	46.921111
4752.000000	46.979132
4750.000000	47.038034
4748.000000	47.095744
4746.000000	47.152656
4744.000000	47.210244
4742.000000	47.268348
4740.000000	47.325787
4738.000000	47.383227
4736.000000	47.441497
4734.000000	47.500410
4732.000000	47.559304
4730.000000	47.618528
4728.000000	47.677690
4726.000000	47.736832
4724.000000	47.796100
4722.000000	47.855838
4720.000000	47.915152
4718.000000	47.976245
4716.000000	48.037937
4714.000000	48.099299
4712.000000	48.160672
4710.000000	48.222542
4708.000000	48.282910
4706.000000	48.343564
4704.000000	48.405622
4702.000000	48.469089
4700.000000	48.532350
4698.000000	48.595219
4696.000000	48.656852
4694.000000	48.717992
4692.000000	48.778713
4690.000000	48.840458
4688.000000	48.902180
4686.000000	48.963439
4684.000000	49.024837
4682.000000	49.087698
4680.000000	49.149771
4678.000000	49.211417
4676.000000	49.272658
4674.000000	49.333729
4672.000000	49.394936
4670.000000	49.456025
4668.000000	49.515649
4666.000000	49.576278
4664.000000	49.638576
4662.000000	49.699908
4660.000000	49.759036
4658.000000	49.817564
4656.000000	49.877354
4654.000000	49.939222
4652.000000	50.001011
4650.000000	50.062193
4648.000000	50.123150
4646.000000	50.184569
4644.000000	50.244883
4642.000000	50.304701
4640.000000	50.365199
4638.000000	50.427018
4636.000000	50.486983
4634.000000	50.545475
4632.000000	50.605099
4630.000000	50.667668
4628.000000	50.731299
4626.000000	50.793314
4624.000000	50.852080
4622.000000	50.911970
4620.000000	50.974976
4618.000000	51.038480
4616.000000	51.100475
4614.000000	51.164315
4612.000000	51.229410
4610.000000	51.293102
4608.000000	51.356040
4606.000000	51.421666
4604.000000	51.487562
4602.000000	51.551909
4600.000000	51.615423
4598.000000	51.680380
4596.000000	51.745223
4594.000000	51.810850
4592.000000	51.876076
4590.000000	51.940697
4588.000000	52.003854
4586.000000	52.066602
4584.000000	52.129778
4582.000000	52.194501
4580.000000	52.259585
4578.000000	52.323910
4576.000000	52.387538
4574.000000	52.450831
4572.000000	52.514399
4570.000000	52.578383
4568.000000	52.640597
4566.000000	52.701675
4564.000000	52.763460
4562.000000	52.827340
4560.000000	52.891674
4558.000000	52.955890
4556.000000	53.018034
4554.000000	53.079498
4552.000000	53.141785
4550.000000	53.204978
4548.000000	53.266962
4546.000000	53.328561
4544.000000	53.391099
4542.000000	53.455054
4540.000000	53.517747
4538.000000	53.578671
4536.000000	53.640110
4534.000000	53.702877
4532.000000	53.765616
4530.000000	53.829644
4528.000000	53.894412
4526.000000	53.958507
4524.000000	54.021410
4522.000000	54.084572
4520.000000	54.148259
4518.000000	54.212704
4516.000000	54.276337
4514.000000	54.340326
4512.000000	54.404596
4510.000000	54.470542
4508.000000	54.536713
4506.000000	54.601175
4504.000000	54.665312
4502.000000	54.731730
4500.000000	54.797244
4498.000000	54.860940
4496.000000	54.923773
4494.000000	54.988124
4492.000000	55.055117
4490.000000	55.123919
4488.000000	55.190817
4486.000000	55.255550
4484.000000	55.319142
4482.000000	55.382714
4480.000000	55.445429
4478.000000	55.509232
4476.000000	55.574092
4474.000000	55.638380
4472.000000	55.701525
4470.000000	55.763877
4468.000000	55.825343
4466.000000	55.887466
4464.000000	55.949107
4462.000000	56.010437
4460.000000	56.072602
4458.000000	56.136188
4456.000000	56.199566
4454.000000	56.262372
4452.000000	56.324072
4450.000000	56.385774
4448.000000	56.446966
4446.000000	56.507318
4444.000000	56.567309
4442.000000	56.630414
4440.000000	56.694725
4438.000000	56.757657
4436.000000	56.819789
4434.000000	56.883556
4432.000000	56.946932
4430.000000	57.010278
4428.000000	57.073182
4426.000000	57.135869
4424.000000	57.198048
4422.000000	57.261212
4420.000000	57.324715
4418.000000	57.389741
4416.000000	57.454659
4414.000000	57.517761
4412.000000	57.579814
4410.000000	57.644258
4408.000000	57.709997
4406.000000	57.775893
4404.000000	57.840869
4402.000000	57.905052
4400.000000	57.968873
4398.000000	58.033312
4396.000000	58.096716
4394.000000	58.159529
4392.000000	58.222845
4390.000000	58.285632
4388.000000	58.346161
4386.000000	58.407237
4384.000000	58.469498
4382.000000	58.531763
4380.000000	58.592158
4378.000000	58.652568
4376.000000	58.713029
4374.000000	58.773110
4372.000000	58.832523
4370.000000	58.891810
4368.000000	58.951070
4366.000000	59.012425
4364.000000	59.073377
4362.000000	59.133390
4360.000000	59.194606
4358.000000	59.256752
4356.000000	59.318552
4354.000000	59.381379
4352.000000	59.443680
4350.000000	59.505401
4348.000000	59.568017
4346.000000	59.632633
4344.000000	59.696736
4342.000000	59.758994
4340.000000	59.820982
4338.000000	59.885580
4336.000000	59.950393
4334.000000	60.013468
4332.000000	60.076946
4330.000000	60.143307
4328.000000	60.210034
4326.000000	60.275589
4324.000000	60.340220
4322.000000	60.405301
4320.000000	60.471369
4318.000000	60.538645
4316.000000	60.605488
4314.000000	60.672660
4312.000000	60.740641
4310.000000	60.809617
4308.000000	60.877591
4306.000000	60.943619
4304.000000	61.008576
4302.000000	61.074646
4300.000000	61.140505
4298.000000	61.206240
4296.000000	61.271853
4294.000000	61.337638
4292.000000	61.401927
