PE IR       SUBTECH     SPECTRUM    ASCII       PEDS        4.00        
   -1
TE109A_059_125K_BG.ASC
20/04/21
17:45:13.00
20/04/21
17:45:13.00
Administrator
TE109A, Tuesday, April 21 2020, 059.
1000.000000
#HDR
-1
-1
#GR
cm-1
EGY
1.0
0.0
6000.000000
-2.000000
2501
8
104.764909
10.893287
#DATA
6000.000000	15.537917
5998.000000	15.567978
5996.000000	15.598844
5994.000000	15.630607
5992.000000	15.662524
5990.000000	15.694389
5988.000000	15.726143
5986.000000	15.757924
5984.000000	15.790453
5982.000000	15.822889
5980.000000	15.854322
5978.000000	15.886425
5976.000000	15.918799
5974.000000	15.950826
5972.000000	15.983288
5970.000000	16.016005
5968.000000	16.049549
5966.000000	16.081915
5964.000000	16.113578
5962.000000	16.144555
5960.000000	16.177367
5958.000000	16.210025
5956.000000	16.243018
5954.000000	16.278216
5952.000000	16.311546
5950.000000	16.343598
5948.000000	16.374054
5946.000000	16.405005
5944.000000	16.438516
5942.000000	16.472633
5940.000000	16.506872
5938.000000	16.539985
5936.000000	16.571382
5934.000000	16.603605
5932.000000	16.636883
5930.000000	16.669417
5928.000000	16.700134
5926.000000	16.732665
5924.000000	16.767683
5922.000000	16.804119
5920.000000	16.839342
5918.000000	16.872151
5916.000000	16.905642
5914.000000	16.940438
5912.000000	16.977908
5910.000000	17.015929
5908.000000	17.050738
5906.000000	17.084526
5904.000000	17.119314
5902.000000	17.154381
5900.000000	17.189894
5898.000000	17.225240
5896.000000	17.262351
5894.000000	17.299236
5892.000000	17.333129
5890.000000	17.367190
5888.000000	17.401492
5886.000000	17.436144
5884.000000	17.469491
5882.000000	17.502419
5880.000000	17.538122
5878.000000	17.574124
5876.000000	17.610245
5874.000000	17.646365
5872.000000	17.681383
5870.000000	17.717875
5868.000000	17.754088
5866.000000	17.789441
5864.000000	17.823718
5862.000000	17.857244
5860.000000	17.892517
5858.000000	17.930118
5856.000000	17.966768
5854.000000	18.003059
5852.000000	18.039731
5850.000000	18.077760
5848.000000	18.116722
5846.000000	18.154862
5844.000000	18.193659
5842.000000	18.233952
5840.000000	18.274241
5838.000000	18.314668
5836.000000	18.354482
5834.000000	18.394178
5832.000000	18.434645
5830.000000	18.475134
5828.000000	18.515478
5826.000000	18.555258
5824.000000	18.594271
5822.000000	18.635027
5820.000000	18.675828
5818.000000	18.716016
5816.000000	18.754489
5814.000000	18.792487
5812.000000	18.831376
5810.000000	18.870868
5808.000000	18.909051
5806.000000	18.948205
5804.000000	18.987561
5802.000000	19.027632
5800.000000	19.066771
5798.000000	19.104787
5796.000000	19.144803
5794.000000	19.185761
5792.000000	19.226095
5790.000000	19.265751
5788.000000	19.305069
5786.000000	19.345139
5784.000000	19.385559
5782.000000	19.425695
5780.000000	19.465052
5778.000000	19.503894
5776.000000	19.542645
5774.000000	19.583825
5772.000000	19.626073
5770.000000	19.668213
5768.000000	19.710794
5766.000000	19.752908
5764.000000	19.793932
5762.000000	19.833799
5760.000000	19.873072
5758.000000	19.914422
5756.000000	19.955426
5754.000000	19.996461
5752.000000	20.036968
5750.000000	20.076249
5748.000000	20.116153
5746.000000	20.157795
5744.000000	20.199209
5742.000000	20.238546
5740.000000	20.275712
5738.000000	20.313971
5736.000000	20.354481
5734.000000	20.394101
5732.000000	20.432615
5730.000000	20.471231
5728.000000	20.510611
5726.000000	20.549626
5724.000000	20.589559
5722.000000	20.631037
5720.000000	20.672025
5718.000000	20.713094
5716.000000	20.754356
5714.000000	20.798151
5712.000000	20.841420
5710.000000	20.883827
5708.000000	20.927455
5706.000000	20.970999
5704.000000	21.013786
5702.000000	21.055052
5700.000000	21.097270
5698.000000	21.140647
5696.000000	21.184453
5694.000000	21.229170
5692.000000	21.273750
5690.000000	21.317527
5688.000000	21.361755
5686.000000	21.406171
5684.000000	21.450182
5682.000000	21.493653
5680.000000	21.537707
5678.000000	21.584037
5676.000000	21.629444
5674.000000	21.672724
5672.000000	21.716508
5670.000000	21.761987
5668.000000	21.806301
5666.000000	21.849324
5664.000000	21.890500
5662.000000	21.933256
5660.000000	21.977409
5658.000000	22.021270
5656.000000	22.066245
5654.000000	22.111531
5652.000000	22.156598
5650.000000	22.202447
5648.000000	22.247828
5646.000000	22.293009
5644.000000	22.336609
5642.000000	22.379944
5640.000000	22.423824
5638.000000	22.468078
5636.000000	22.510624
5634.000000	22.554222
5632.000000	22.598511
5630.000000	22.644155
5628.000000	22.687934
5626.000000	22.731072
5624.000000	22.775247
5622.000000	22.820348
5620.000000	22.865281
5618.000000	22.909671
5616.000000	22.954063
5614.000000	22.997566
5612.000000	23.040923
5610.000000	23.084814
5608.000000	23.129194
5606.000000	23.174723
5604.000000	23.221872
5602.000000	23.269120
5600.000000	23.313918
5598.000000	23.355710
5596.000000	23.398010
5594.000000	23.442697
5592.000000	23.488781
5590.000000	23.535915
5588.000000	23.581809
5586.000000	23.626800
5584.000000	23.672333
5582.000000	23.718280
5580.000000	23.763555
5578.000000	23.808588
5576.000000	23.855275
5574.000000	23.902992
5572.000000	23.950187
5570.000000	23.996889
5568.000000	24.042868
5566.000000	24.089181
5564.000000	24.135564
5562.000000	24.183564
5560.000000	24.230618
5558.000000	24.275523
5556.000000	24.319913
5554.000000	24.365433
5552.000000	24.410738
5550.000000	24.456512
5548.000000	24.503830
5546.000000	24.551274
5544.000000	24.597886
5542.000000	24.644153
5540.000000	24.691035
5538.000000	24.737152
5536.000000	24.781152
5534.000000	24.827365
5532.000000	24.875849
5530.000000	24.923404
5528.000000	24.969646
5526.000000	25.016004
5524.000000	25.061647
5522.000000	25.105881
5520.000000	25.151474
5518.000000	25.200406
5516.000000	25.249708
5514.000000	25.298137
5512.000000	25.345095
5510.000000	25.388905
5508.000000	25.431577
5506.000000	25.476521
5504.000000	25.524615
5502.000000	25.572608
5500.000000	25.619406
5498.000000	25.666416
5496.000000	25.709702
5494.000000	25.752784
5492.000000	25.797610
5490.000000	25.847921
5488.000000	25.900311
5486.000000	25.952528
5484.000000	26.002720
5482.000000	26.051311
5480.000000	26.096071
5478.000000	26.137875
5476.000000	26.181449
5474.000000	26.231348
5472.000000	26.285135
5470.000000	26.335897
5468.000000	26.383269
5466.000000	26.428868
5464.000000	26.472745
5462.000000	26.517946
5460.000000	26.566929
5458.000000	26.620042
5456.000000	26.672624
5454.000000	26.720936
5452.000000	26.765846
5450.000000	26.807214
5448.000000	26.848402
5446.000000	26.894070
5444.000000	26.943088
5442.000000	26.995332
5440.000000	27.045791
5438.000000	27.092759
5436.000000	27.137977
5434.000000	27.183474
5432.000000	27.228931
5430.000000	27.276613
5428.000000	27.329733
5426.000000	27.388584
5424.000000	27.444491
5422.000000	27.494930
5420.000000	27.541103
5418.000000	27.579516
5416.000000	27.612891
5414.000000	27.649967
5412.000000	27.698437
5410.000000	27.756218
5408.000000	27.814569
5406.000000	27.869592
5404.000000	27.921232
5402.000000	27.972026
5400.000000	28.019389
5398.000000	28.060347
5396.000000	28.099560
5394.000000	28.147424
5392.000000	28.203412
5390.000000	28.258112
5388.000000	28.306760
5386.000000	28.355251
5384.000000	28.408383
5382.000000	28.459995
5380.000000	28.502380
5378.000000	28.541408
5376.000000	28.588105
5374.000000	28.647136
5372.000000	28.707779
5370.000000	28.763590
5368.000000	28.811958
5366.000000	28.857814
5364.000000	28.905698
5362.000000	28.958399
5360.000000	29.010592
5358.000000	29.054576
5356.000000	29.093029
5354.000000	29.137137
5352.000000	29.189929
5350.000000	29.243324
5348.000000	29.285493
5346.000000	29.325313
5344.000000	29.372248
5342.000000	29.422709
5340.000000	29.470783
5338.000000	29.521373
5336.000000	29.579463
5334.000000	29.638866
5332.000000	29.690690
5330.000000	29.736994
5328.000000	29.784396
5326.000000	29.837750
5324.000000	29.895615
5322.000000	29.950812
5320.000000	30.000219
5318.000000	30.047115
5316.000000	30.095467
5314.000000	30.145907
5312.000000	30.194160
5310.000000	30.239377
5308.000000	30.287138
5306.000000	30.340117
5304.000000	30.395354
5302.000000	30.447579
5300.000000	30.497476
5298.000000	30.548616
5296.000000	30.599122
5294.000000	30.644707
5292.000000	30.687837
5290.000000	30.735849
5288.000000	30.788452
5286.000000	30.842491
5284.000000	30.895811
5282.000000	30.949352
5280.000000	31.001399
5278.000000	31.054000
5276.000000	31.106442
5274.000000	31.156224
5272.000000	31.203635
5270.000000	31.251219
5268.000000	31.295458
5266.000000	31.336527
5264.000000	31.382452
5262.000000	31.440093
5260.000000	31.500839
5258.000000	31.554173
5256.000000	31.602899
5254.000000	31.655022
5252.000000	31.704528
5250.000000	31.748250
5248.000000	31.791843
5246.000000	31.843288
5244.000000	31.902166
5242.000000	31.962817
5240.000000	32.021360
5238.000000	32.072717
5236.000000	32.119757
5234.000000	32.167284
5232.000000	32.217588
5230.000000	32.266509
5228.000000	32.311678
5226.000000	32.359015
5224.000000	32.413823
5222.000000	32.471174
5220.000000	32.525057
5218.000000	32.577054
5216.000000	32.629843
5214.000000	32.682308
5212.000000	32.728819
5210.000000	32.768582
5208.000000	32.809821
5206.000000	32.864268
5204.000000	32.928937
5202.000000	32.991211
5200.000000	33.043624
5198.000000	33.091786
5196.000000	33.143532
5194.000000	33.200583
5192.000000	33.255718
5190.000000	33.306543
5188.000000	33.356724
5186.000000	33.410006
5184.000000	33.464085
5182.000000	33.518066
5180.000000	33.572232
5178.000000	33.627843
5176.000000	33.682322
5174.000000	33.734919
5172.000000	33.787036
5170.000000	33.840763
5168.000000	33.893312
5166.000000	33.946132
5164.000000	34.000760
5162.000000	34.055747
5160.000000	34.107500
5158.000000	34.159036
5156.000000	34.213044
5154.000000	34.267998
5152.000000	34.321766
5150.000000	34.375484
5148.000000	34.428735
5146.000000	34.481183
5144.000000	34.533225
5142.000000	34.586969
5140.000000	34.640450
5138.000000	34.693015
5136.000000	34.744381
5134.000000	34.796202
5132.000000	34.849564
5130.000000	34.904308
5128.000000	34.958662
5126.000000	35.011572
5124.000000	35.064282
5122.000000	35.116843
5120.000000	35.169961
5118.000000	35.224792
5116.000000	35.279215
5114.000000	35.331874
5112.000000	35.384637
5110.000000	35.439462
5108.000000	35.494894
5106.000000	35.548882
5104.000000	35.601998
5102.000000	35.655800
5100.000000	35.709749
5098.000000	35.764116
5096.000000	35.818674
5094.000000	35.873510
5092.000000	35.927970
5090.000000	35.984093
5088.000000	36.041925
5086.000000	36.100297
5084.000000	36.156189
5082.000000	36.210157
5080.000000	36.262774
5078.000000	36.317099
5076.000000	36.372886
5074.000000	36.429387
5072.000000	36.484278
5070.000000	36.538793
5068.000000	36.594475
5066.000000	36.651936
5064.000000	36.708261
5062.000000	36.762587
5060.000000	36.817155
5058.000000	36.872145
5056.000000	36.926444
5054.000000	36.980775
5052.000000	37.035503
5050.000000	37.090937
5048.000000	37.145483
5046.000000	37.201129
5044.000000	37.256642
5042.000000	37.312168
5040.000000	37.366661
5038.000000	37.421718
5036.000000	37.477215
5034.000000	37.531582
5032.000000	37.584452
5030.000000	37.639308
5028.000000	37.695079
5026.000000	37.749891
5024.000000	37.804203
5022.000000	37.859780
5020.000000	37.915012
5018.000000	37.969805
5016.000000	38.024763
5014.000000	38.080268
5012.000000	38.136050
5010.000000	38.192438
5008.000000	38.248544
5006.000000	38.304877
5004.000000	38.361369
5002.000000	38.417849
5000.000000	38.473525
4998.000000	38.529962
4996.000000	38.587596
4994.000000	38.645488
4992.000000	38.703010
4990.000000	38.760333
4988.000000	38.816970
4986.000000	38.872686
4984.000000	38.928981
4982.000000	38.987125
4980.000000	39.045023
4978.000000	39.102162
4976.000000	39.159689
4974.000000	39.217120
4972.000000	39.272680
4970.000000	39.328417
4968.000000	39.385220
4966.000000	39.441808
4964.000000	39.498304
4962.000000	39.556003
4960.000000	39.612633
4958.000000	39.667320
4956.000000	39.722295
4954.000000	39.779407
4952.000000	39.836155
4950.000000	39.890736
4948.000000	39.944511
4946.000000	40.001243
4944.000000	40.059153
4942.000000	40.116321
4940.000000	40.171522
4938.000000	40.226119
4936.000000	40.281252
4934.000000	40.337640
4932.000000	40.394146
4930.000000	40.449579
4928.000000	40.505006
4926.000000	40.562407
4924.000000	40.620334
4922.000000	40.675725
4920.000000	40.729337
4918.000000	40.785640
4916.000000	40.843231
4914.000000	40.900613
4912.000000	40.957937
4910.000000	41.014678
4908.000000	41.071338
4906.000000	41.128872
4904.000000	41.187052
4902.000000	41.244916
4900.000000	41.303750
4898.000000	41.361476
4896.000000	41.417573
4894.000000	41.476035
4892.000000	41.536992
4890.000000	41.596823
4888.000000	41.653689
4886.000000	41.711362
4884.000000	41.770362
4882.000000	41.828491
4880.000000	41.885323
4878.000000	41.942769
4876.000000	41.999828
4874.000000	42.056823
4872.000000	42.114650
4870.000000	42.173621
4868.000000	42.231824
4866.000000	42.291308
4864.000000	42.350154
4862.000000	42.407366
4860.000000	42.463666
4858.000000	42.520691
4856.000000	42.576667
4854.000000	42.632133
4852.000000	42.687491
4850.000000	42.743944
4848.000000	42.801256
4846.000000	42.858871
4844.000000	42.915101
4842.000000	42.971566
4840.000000	43.028218
4838.000000	43.086036
4836.000000	43.145042
4834.000000	43.203540
4832.000000	43.260446
4830.000000	43.316653
4828.000000	43.372080
4826.000000	43.428832
4824.000000	43.486596
4822.000000	43.543731
4820.000000	43.598712
4818.000000	43.655768
4816.000000	43.714786
4814.000000	43.774693
4812.000000	43.833661
4810.000000	43.892226
4808.000000	43.950222
4806.000000	44.009220
4804.000000	44.068569
4802.000000	44.127675
4800.000000	44.185950
4798.000000	44.244867
4796.000000	44.303918
4794.000000	44.363488
4792.000000	44.422532
4790.000000	44.481241
4788.000000	44.540298
4786.000000	44.601524
4784.000000	44.661906
4782.000000	44.720015
4780.000000	44.777674
4778.000000	44.836844
4776.000000	44.895747
4774.000000	44.955028
4772.000000	45.014006
4770.000000	45.072123
4768.000000	45.129307
4766.000000	45.186939
4764.000000	45.245742
4762.000000	45.304832
4760.000000	45.362685
4758.000000	45.420300
4756.000000	45.478601
4754.000000	45.536243
4752.000000	45.593296
4750.000000	45.650693
4748.000000	45.708156
4746.000000	45.766307
4744.000000	45.824154
4742.000000	45.881650
4740.000000	45.938811
4738.000000	45.996013
4736.000000	46.052451
4734.000000	46.110282
4732.000000	46.168998
4730.000000	46.227794
4728.000000	46.286466
4726.000000	46.346580
4724.000000	46.405513
4722.000000	46.462666
4720.000000	46.519719
4718.000000	46.579634
4716.000000	46.641574
4714.000000	46.702708
4712.000000	46.761953
4710.000000	46.821955
4708.000000	46.883687
4706.000000	46.945553
4704.000000	47.007740
4702.000000	47.071099
4700.000000	47.133449
4698.000000	47.194456
4696.000000	47.256156
4694.000000	47.317883
4692.000000	47.377525
4690.000000	47.437829
4688.000000	47.499723
4686.000000	47.561157
4684.000000	47.620446
4682.000000	47.679424
4680.000000	47.739530
4678.000000	47.801503
4676.000000	47.862272
4674.000000	47.921380
4672.000000	47.981062
4670.000000	48.043184
4668.000000	48.104307
4666.000000	48.164130
4664.000000	48.223842
4662.000000	48.284340
4660.000000	48.344755
4658.000000	48.406487
4656.000000	48.467296
4654.000000	48.526177
4652.000000	48.584523
4650.000000	48.645323
4648.000000	48.707323
4646.000000	48.767309
4644.000000	48.825473
4642.000000	48.886654
4640.000000	48.949025
4638.000000	49.009405
4636.000000	49.068606
4634.000000	49.127827
4632.000000	49.185514
4630.000000	49.244416
4628.000000	49.305620
4626.000000	49.367616
4624.000000	49.428222
4622.000000	49.489072
4620.000000	49.550628
4618.000000	49.613634
4616.000000	49.676068
4614.000000	49.738316
4612.000000	49.801031
4610.000000	49.864892
4608.000000	49.927570
4606.000000	49.990303
4604.000000	50.054072
4602.000000	50.119257
4600.000000	50.184629
4598.000000	50.249894
4596.000000	50.313299
4594.000000	50.376955
4592.000000	50.441405
4590.000000	50.505672
4588.000000	50.567793
4586.000000	50.631371
4584.000000	50.696706
4582.000000	50.761703
4580.000000	50.824040
4578.000000	50.885604
4576.000000	50.947833
4574.000000	51.011591
4572.000000	51.074938
4570.000000	51.136488
4568.000000	51.197405
4566.000000	51.259710
4564.000000	51.322591
4562.000000	51.385747
4560.000000	51.448428
4558.000000	51.511394
4556.000000	51.574347
4554.000000	51.637543
4552.000000	51.700419
4550.000000	51.763775
4548.000000	51.825952
4546.000000	51.886290
4544.000000	51.945597
4542.000000	52.006841
4540.000000	52.069081
4538.000000	52.130852
4536.000000	52.192846
4534.000000	52.256040
4532.000000	52.318787
4530.000000	52.382263
4528.000000	52.445682
4526.000000	52.507254
4524.000000	52.567951
4522.000000	52.632015
4520.000000	52.696897
4518.000000	52.760432
4516.000000	52.824391
4514.000000	52.889179
4512.000000	52.952144
4510.000000	53.015676
4508.000000	53.080651
4506.000000	53.144924
4504.000000	53.209139
4502.000000	53.276172
4500.000000	53.343732
4498.000000	53.408601
4496.000000	53.471263
4494.000000	53.535128
4492.000000	53.600014
4490.000000	53.664864
4488.000000	53.729678
4486.000000	53.794799
4484.000000	53.858932
4482.000000	53.922655
4480.000000	53.986910
4478.000000	54.051588
4476.000000	54.114874
4474.000000	54.176753
4472.000000	54.238223
4470.000000	54.300193
4468.000000	54.362290
4466.000000	54.425738
4464.000000	54.489519
4462.000000	54.551530
4460.000000	54.611297
4458.000000	54.671271
4456.000000	54.732590
4454.000000	54.795829
4452.000000	54.858457
4450.000000	54.919229
4448.000000	54.980716
4446.000000	55.044465
4444.000000	55.106348
4442.000000	55.166405
4440.000000	55.228103
4438.000000	55.291987
4436.000000	55.354807
4434.000000	55.417105
4432.000000	55.479073
4430.000000	55.541894
4428.000000	55.605980
4426.000000	55.670088
4424.000000	55.731361
4422.000000	55.791940
4420.000000	55.854012
4418.000000	55.919231
4416.000000	55.984385
4414.000000	56.047534
4412.000000	56.111062
4410.000000	56.177547
4408.000000	56.243146
4406.000000	56.306991
4404.000000	56.369094
4402.000000	56.431297
4400.000000	56.495401
4398.000000	56.560770
4396.000000	56.624122
4394.000000	56.686501
4392.000000	56.749195
4390.000000	56.812975
4388.000000	56.874926
4386.000000	56.935054
4384.000000	56.995262
4382.000000	57.056234
4380.000000	57.116423
4378.000000	57.177017
4376.000000	57.237251
4374.000000	57.298501
4372.000000	57.359723
4370.000000	57.419901
4368.000000	57.479427
4366.000000	57.539287
4364.000000	57.598728
4362.000000	57.659131
4360.000000	57.719365
4358.000000	57.780097
4356.000000	57.841462
4354.000000	57.904566
4352.000000	57.968604
4350.000000	58.031247
4348.000000	58.092438
4346.000000	58.156136
4344.000000	58.221190
4342.000000	58.285042
4340.000000	58.347113
4338.000000	58.410127
4336.000000	58.473142
4334.000000	58.535872
4332.000000	58.599747
4330.000000	58.664930
4328.000000	58.728965
4326.000000	58.792637
4324.000000	58.858126
4322.000000	58.926540
4320.000000	58.994512
4318.000000	59.061674
4316.000000	59.128148
4314.000000	59.194353
4312.000000	59.261422
4310.000000	59.330334
4308.000000	59.398074
4306.000000	59.463666
4304.000000	59.528871
4302.000000	59.594905
4300.000000	59.660194
4298.000000	59.725686
4296.000000	59.791060
4294.000000	59.854508
4292.000000	59.916723
