PE IR       SUBTECH     SPECTRUM    ASCII       PEDS        4.00        
   -1
TE109A_082_160K_BG.ASC
20/04/21
21:38:57.00
20/04/21
21:38:57.00
Administrator
TE109A, Tuesday, April 21 2020, 082.
1000.000000
#HDR
-1
-1
#GR
cm-1
EGY
1.0
0.0
6000.000000
-2.000000
2501
8
105.414653
10.950259
#DATA
6000.000000	16.542867
5998.000000	16.573282
5996.000000	16.605306
5994.000000	16.637999
5992.000000	16.671047
5990.000000	16.703358
5988.000000	16.736446
5986.000000	16.770654
5984.000000	16.803394
5982.000000	16.835751
5980.000000	16.869218
5978.000000	16.905232
5976.000000	16.939640
5974.000000	16.971076
5972.000000	17.002143
5970.000000	17.036485
5968.000000	17.072504
5966.000000	17.107232
5964.000000	17.141357
5962.000000	17.175608
5960.000000	17.210096
5958.000000	17.245058
5956.000000	17.279592
5954.000000	17.313797
5952.000000	17.347692
5950.000000	17.381818
5948.000000	17.416396
5946.000000	17.450548
5944.000000	17.483959
5942.000000	17.517526
5940.000000	17.550464
5938.000000	17.582795
5936.000000	17.614221
5934.000000	17.648550
5932.000000	17.684141
5930.000000	17.720108
5928.000000	17.754402
5926.000000	17.789120
5924.000000	17.824834
5922.000000	17.860149
5920.000000	17.894113
5918.000000	17.928940
5916.000000	17.965606
5914.000000	18.003178
5912.000000	18.040464
5910.000000	18.076332
5908.000000	18.111144
5906.000000	18.147081
5904.000000	18.183740
5902.000000	18.220779
5900.000000	18.258757
5898.000000	18.296158
5896.000000	18.334012
5894.000000	18.370074
5892.000000	18.405642
5890.000000	18.442722
5888.000000	18.479607
5886.000000	18.515129
5884.000000	18.548900
5882.000000	18.584336
5880.000000	18.621216
5878.000000	18.657843
5876.000000	18.693476
5874.000000	18.729641
5872.000000	18.767554
5870.000000	18.803715
5868.000000	18.839874
5866.000000	18.877194
5864.000000	18.915321
5862.000000	18.951798
5860.000000	18.987072
5858.000000	19.026050
5856.000000	19.065797
5854.000000	19.104717
5852.000000	19.142579
5850.000000	19.182151
5848.000000	19.222771
5846.000000	19.262695
5844.000000	19.301933
5842.000000	19.342104
5840.000000	19.382908
5838.000000	19.424621
5836.000000	19.466735
5834.000000	19.508558
5832.000000	19.549510
5830.000000	19.590424
5828.000000	19.630817
5826.000000	19.672588
5824.000000	19.713849
5822.000000	19.755164
5820.000000	19.796053
5818.000000	19.836912
5816.000000	19.878331
5814.000000	19.919677
5812.000000	19.961024
5810.000000	20.001191
5808.000000	20.040868
5806.000000	20.079987
5804.000000	20.119812
5802.000000	20.161232
5800.000000	20.203622
5798.000000	20.245696
5796.000000	20.285740
5794.000000	20.325211
5792.000000	20.365002
5790.000000	20.406747
5788.000000	20.448919
5786.000000	20.491488
5784.000000	20.532548
5782.000000	20.573604
5780.000000	20.615516
5778.000000	20.658180
5776.000000	20.699631
5774.000000	20.740599
5772.000000	20.782032
5770.000000	20.824649
5768.000000	20.866377
5766.000000	20.907517
5764.000000	20.949582
5762.000000	20.992482
5760.000000	21.035612
5758.000000	21.079506
5756.000000	21.121973
5754.000000	21.162715
5752.000000	21.202091
5750.000000	21.243318
5748.000000	21.285324
5746.000000	21.326581
5744.000000	21.367848
5742.000000	21.409793
5740.000000	21.452064
5738.000000	21.493110
5736.000000	21.532789
5734.000000	21.572314
5732.000000	21.611991
5730.000000	21.652900
5728.000000	21.695065
5726.000000	21.736138
5724.000000	21.777331
5722.000000	21.820299
5720.000000	21.863628
5718.000000	21.906276
5716.000000	21.947622
5714.000000	21.989680
5712.000000	22.032945
5710.000000	22.078453
5708.000000	22.125602
5706.000000	22.172738
5704.000000	22.217052
5702.000000	22.258883
5700.000000	22.301468
5698.000000	22.346306
5696.000000	22.390360
5694.000000	22.433684
5692.000000	22.476744
5690.000000	22.522696
5688.000000	22.570452
5686.000000	22.618344
5684.000000	22.665448
5682.000000	22.711904
5680.000000	22.755727
5678.000000	22.798898
5676.000000	22.842777
5674.000000	22.889316
5672.000000	22.936581
5670.000000	22.981532
5668.000000	23.025386
5666.000000	23.070090
5664.000000	23.116116
5662.000000	23.162405
5660.000000	23.208705
5658.000000	23.254931
5656.000000	23.299347
5654.000000	23.343667
5652.000000	23.389863
5650.000000	23.437370
5648.000000	23.482740
5646.000000	23.527626
5644.000000	23.573338
5642.000000	23.620375
5640.000000	23.664673
5638.000000	23.708471
5636.000000	23.752634
5634.000000	23.798522
5632.000000	23.844499
5630.000000	23.889934
5628.000000	23.935148
5626.000000	23.980576
5624.000000	24.026007
5622.000000	24.072780
5620.000000	24.119545
5618.000000	24.165958
5616.000000	24.210632
5614.000000	24.254901
5612.000000	24.299535
5610.000000	24.345173
5608.000000	24.391735
5606.000000	24.439008
5604.000000	24.485681
5602.000000	24.531695
5600.000000	24.577616
5598.000000	24.623890
5596.000000	24.670444
5594.000000	24.716320
5592.000000	24.762056
5590.000000	24.809628
5588.000000	24.857011
5586.000000	24.904929
5584.000000	24.950923
5582.000000	24.997054
5580.000000	25.043318
5578.000000	25.090554
5576.000000	25.137987
5574.000000	25.185345
5572.000000	25.234117
5570.000000	25.284305
5568.000000	25.332899
5566.000000	25.379158
5564.000000	25.424602
5562.000000	25.472159
5560.000000	25.520724
5558.000000	25.569910
5556.000000	25.618245
5554.000000	25.666453
5552.000000	25.713885
5550.000000	25.760221
5548.000000	25.806994
5546.000000	25.854962
5544.000000	25.903525
5542.000000	25.950337
5540.000000	25.995814
5538.000000	26.043312
5536.000000	26.092639
5534.000000	26.142644
5532.000000	26.191530
5530.000000	26.239428
5528.000000	26.285550
5526.000000	26.330874
5524.000000	26.377839
5522.000000	26.426137
5520.000000	26.472951
5518.000000	26.519084
5516.000000	26.567031
5514.000000	26.617192
5512.000000	26.665128
5510.000000	26.710980
5508.000000	26.756355
5506.000000	26.804575
5504.000000	26.854256
5502.000000	26.904092
5500.000000	26.953078
5498.000000	27.000459
5496.000000	27.044373
5494.000000	27.087821
5492.000000	27.134099
5490.000000	27.185031
5488.000000	27.236275
5486.000000	27.287151
5484.000000	27.339596
5482.000000	27.392985
5480.000000	27.441466
5478.000000	27.483309
5476.000000	27.528301
5474.000000	27.580281
5472.000000	27.634231
5470.000000	27.683550
5468.000000	27.729462
5466.000000	27.777242
5464.000000	27.824883
5462.000000	27.873758
5460.000000	27.923460
5458.000000	27.975972
5456.000000	28.028893
5454.000000	28.079260
5452.000000	28.125361
5450.000000	28.169283
5448.000000	28.213396
5446.000000	28.259475
5444.000000	28.306388
5442.000000	28.357905
5440.000000	28.410964
5438.000000	28.461443
5436.000000	28.508924
5434.000000	28.556040
5432.000000	28.603350
5430.000000	28.651044
5428.000000	28.701831
5426.000000	28.758766
5424.000000	28.816223
5422.000000	28.869263
5420.000000	28.918008
5418.000000	28.959493
5416.000000	28.996815
5414.000000	29.036091
5412.000000	29.084562
5410.000000	29.142698
5408.000000	29.202404
5406.000000	29.258972
5404.000000	29.312115
5402.000000	29.363661
5400.000000	29.411953
5398.000000	29.452330
5396.000000	29.490193
5394.000000	29.537204
5392.000000	29.595007
5390.000000	29.653165
5388.000000	29.701776
5386.000000	29.748885
5384.000000	29.802009
5382.000000	29.856950
5380.000000	29.903546
5378.000000	29.947023
5376.000000	29.996910
5374.000000	30.056618
5372.000000	30.117045
5370.000000	30.172613
5368.000000	30.221890
5366.000000	30.269811
5364.000000	30.320109
5362.000000	30.372263
5360.000000	30.423166
5358.000000	30.469434
5356.000000	30.511005
5354.000000	30.555902
5352.000000	30.607565
5350.000000	30.660687
5348.000000	30.704963
5346.000000	30.747855
5344.000000	30.798060
5342.000000	30.849144
5340.000000	30.896240
5338.000000	30.945798
5336.000000	31.004996
5334.000000	31.067355
5332.000000	31.121519
5330.000000	31.168542
5328.000000	31.216956
5326.000000	31.271454
5324.000000	31.327932
5322.000000	31.381701
5320.000000	31.432862
5318.000000	31.484249
5316.000000	31.535172
5314.000000	31.587102
5312.000000	31.636220
5310.000000	31.682272
5308.000000	31.729110
5306.000000	31.780694
5304.000000	31.834512
5302.000000	31.887217
5300.000000	31.938708
5298.000000	31.990902
5296.000000	32.043429
5294.000000	32.092590
5292.000000	32.138678
5290.000000	32.187596
5288.000000	32.242268
5286.000000	32.298699
5284.000000	32.352159
5282.000000	32.404657
5280.000000	32.457961
5278.000000	32.512453
5276.000000	32.567658
5274.000000	32.620425
5272.000000	32.668951
5270.000000	32.715387
5268.000000	32.759968
5266.000000	32.804686
5264.000000	32.854435
5262.000000	32.913551
5260.000000	32.974940
5258.000000	33.027992
5256.000000	33.076428
5254.000000	33.128261
5252.000000	33.180225
5250.000000	33.227243
5248.000000	33.272046
5246.000000	33.324226
5244.000000	33.384707
5242.000000	33.446838
5240.000000	33.503963
5238.000000	33.554689
5236.000000	33.603033
5234.000000	33.652891
5232.000000	33.704763
5230.000000	33.755025
5228.000000	33.801899
5226.000000	33.849937
5224.000000	33.903437
5222.000000	33.960295
5220.000000	34.016136
5218.000000	34.072131
5216.000000	34.127159
5214.000000	34.178829
5212.000000	34.225605
5210.000000	34.268362
5208.000000	34.312962
5206.000000	34.367403
5204.000000	34.430630
5202.000000	34.491528
5200.000000	34.543975
5198.000000	34.595604
5196.000000	34.650737
5194.000000	34.707511
5192.000000	34.762378
5190.000000	34.815637
5188.000000	34.868084
5186.000000	34.920928
5184.000000	34.974817
5182.000000	35.030090
5180.000000	35.086729
5178.000000	35.144751
5176.000000	35.200825
5174.000000	35.253872
5172.000000	35.306343
5170.000000	35.360195
5168.000000	35.414392
5166.000000	35.468183
5164.000000	35.522456
5162.000000	35.577128
5160.000000	35.632403
5158.000000	35.687699
5156.000000	35.742093
5154.000000	35.796134
5152.000000	35.850887
5150.000000	35.906221
5148.000000	35.961464
5146.000000	36.016231
5144.000000	36.069829
5142.000000	36.123388
5140.000000	36.176808
5138.000000	36.230820
5136.000000	36.284737
5134.000000	36.339771
5132.000000	36.394301
5130.000000	36.447687
5128.000000	36.500863
5126.000000	36.554789
5124.000000	36.608986
5122.000000	36.662299
5120.000000	36.715574
5118.000000	36.770763
5116.000000	36.826995
5114.000000	36.883031
5112.000000	36.937565
5110.000000	36.991662
5108.000000	37.046298
5106.000000	37.101413
5104.000000	37.156358
5102.000000	37.212722
5100.000000	37.269864
5098.000000	37.326752
5096.000000	37.381707
5094.000000	37.436698
5092.000000	37.491620
5090.000000	37.547548
5088.000000	37.604822
5086.000000	37.662919
5084.000000	37.719692
5082.000000	37.775809
5080.000000	37.832062
5078.000000	37.889296
5076.000000	37.946366
5074.000000	38.003626
5072.000000	38.059813
5070.000000	38.114617
5068.000000	38.170541
5066.000000	38.228025
5064.000000	38.284823
5062.000000	38.340617
5060.000000	38.395599
5058.000000	38.451434
5056.000000	38.507376
5054.000000	38.563800
5052.000000	38.620089
5050.000000	38.677465
5048.000000	38.734793
5046.000000	38.790295
5044.000000	38.845915
5042.000000	38.903496
5040.000000	38.960015
5038.000000	39.014514
5036.000000	39.069783
5034.000000	39.126942
5032.000000	39.183463
5030.000000	39.238632
5028.000000	39.292854
5026.000000	39.347615
5024.000000	39.403975
5022.000000	39.462134
5020.000000	39.518898
5018.000000	39.573675
5016.000000	39.627741
5014.000000	39.684143
5012.000000	39.742119
5010.000000	39.799900
5008.000000	39.856925
5006.000000	39.915297
5004.000000	39.972125
5002.000000	40.028664
5000.000000	40.086663
4998.000000	40.146164
4996.000000	40.203458
4994.000000	40.259562
4992.000000	40.317653
4990.000000	40.376814
4988.000000	40.434118
4986.000000	40.491270
4984.000000	40.550328
4982.000000	40.610714
4980.000000	40.669191
4978.000000	40.727060
4976.000000	40.784758
4974.000000	40.842605
4972.000000	40.900312
4970.000000	40.958296
4968.000000	41.016090
4966.000000	41.074080
4964.000000	41.130836
4962.000000	41.187084
4960.000000	41.244466
4958.000000	41.302501
4956.000000	41.359288
4954.000000	41.415874
4952.000000	41.473100
4950.000000	41.529877
4948.000000	41.586045
4946.000000	41.643796
4944.000000	41.701546
4942.000000	41.757706
4940.000000	41.812841
4938.000000	41.869261
4936.000000	41.927066
4934.000000	41.984801
4932.000000	42.041455
4930.000000	42.098516
4928.000000	42.156683
4926.000000	42.215071
4924.000000	42.271694
4922.000000	42.327668
4920.000000	42.383645
4918.000000	42.439932
4916.000000	42.495857
4914.000000	42.553082
4912.000000	42.610574
4910.000000	42.668308
4908.000000	42.726455
4906.000000	42.786364
4904.000000	42.846041
4902.000000	42.906043
4900.000000	42.965988
4898.000000	43.025021
4896.000000	43.083010
4894.000000	43.142453
4892.000000	43.201576
4890.000000	43.260997
4888.000000	43.321199
4886.000000	43.381958
4884.000000	43.441236
4882.000000	43.500090
4880.000000	43.558029
4878.000000	43.616137
4876.000000	43.674682
4874.000000	43.733991
4872.000000	43.794592
4870.000000	43.855472
4868.000000	43.912571
4866.000000	43.967317
4864.000000	44.023429
4862.000000	44.081501
4860.000000	44.140676
4858.000000	44.201050
4856.000000	44.260419
4854.000000	44.318478
4852.000000	44.375584
4850.000000	44.433070
4848.000000	44.490525
4846.000000	44.548109
4844.000000	44.605111
4842.000000	44.663891
4840.000000	44.723701
4838.000000	44.782476
4836.000000	44.838962
4834.000000	44.896233
4832.000000	44.953307
4830.000000	45.010314
4828.000000	45.066285
4826.000000	45.123994
4824.000000	45.182920
4822.000000	45.241547
4820.000000	45.298976
4818.000000	45.358007
4816.000000	45.417939
4814.000000	45.476638
4812.000000	45.535810
4810.000000	45.596844
4808.000000	45.656757
4806.000000	45.715248
4804.000000	45.774742
4802.000000	45.835432
4800.000000	45.893837
4798.000000	45.952260
4796.000000	46.012914
4794.000000	46.075956
4792.000000	46.137605
4790.000000	46.197993
4788.000000	46.257962
4786.000000	46.318800
4784.000000	46.379246
4782.000000	46.438485
4780.000000	46.496529
4778.000000	46.555657
4776.000000	46.615838
4774.000000	46.676528
4772.000000	46.736700
4770.000000	46.797079
4768.000000	46.856648
4766.000000	46.916417
4764.000000	46.975307
4762.000000	47.032642
4760.000000	47.089706
4758.000000	47.148701
4756.000000	47.209280
4754.000000	47.269271
4752.000000	47.327068
4750.000000	47.384895
4748.000000	47.444877
4746.000000	47.505090
4744.000000	47.562295
4742.000000	47.618365
4740.000000	47.674648
4738.000000	47.731843
4736.000000	47.789591
4734.000000	47.848395
4732.000000	47.907393
4730.000000	47.968435
4728.000000	48.029556
4726.000000	48.088824
4724.000000	48.146460
4722.000000	48.204746
4720.000000	48.263296
4718.000000	48.323082
4716.000000	48.384572
4714.000000	48.447441
4712.000000	48.509261
4710.000000	48.570096
4708.000000	48.632436
4706.000000	48.696824
4704.000000	48.760949
4702.000000	48.823731
4700.000000	48.885466
4698.000000	48.947214
4696.000000	49.009528
4694.000000	49.071727
4692.000000	49.132994
4690.000000	49.194683
4688.000000	49.256468
4686.000000	49.318268
4684.000000	49.379660
4682.000000	49.442019
4680.000000	49.504493
4678.000000	49.566020
4676.000000	49.625152
4674.000000	49.684992
4672.000000	49.746224
4670.000000	49.807699
4668.000000	49.868061
4666.000000	49.929154
4664.000000	49.990689
4662.000000	50.053234
4660.000000	50.115989
4658.000000	50.176963
4656.000000	50.236821
4654.000000	50.297360
4652.000000	50.358050
4650.000000	50.419575
4648.000000	50.480779
4646.000000	50.541422
4644.000000	50.602118
4642.000000	50.664121
4640.000000	50.724383
4638.000000	50.783506
4636.000000	50.843374
4634.000000	50.905371
4632.000000	50.967196
4630.000000	51.027271
4628.000000	51.087607
4626.000000	51.149639
4624.000000	51.210896
4622.000000	51.271138
4620.000000	51.332937
4618.000000	51.397630
4616.000000	51.461978
4614.000000	51.524880
4612.000000	51.587151
4610.000000	51.650570
4608.000000	51.714960
4606.000000	51.780508
4604.000000	51.846321
4602.000000	51.911648
4600.000000	51.975576
4598.000000	52.039661
4596.000000	52.104370
4594.000000	52.169467
4592.000000	52.233511
4590.000000	52.297961
4588.000000	52.362675
4586.000000	52.427718
4584.000000	52.491679
4582.000000	52.555592
4580.000000	52.620310
4578.000000	52.685617
4576.000000	52.750199
4574.000000	52.814331
4572.000000	52.877847
4570.000000	52.940396
4568.000000	53.003028
4566.000000	53.065893
4564.000000	53.128429
4562.000000	53.191458
4560.000000	53.255427
4558.000000	53.319134
4556.000000	53.381047
4554.000000	53.443650
4552.000000	53.507086
4550.000000	53.569854
4548.000000	53.631949
4546.000000	53.694499
4544.000000	53.755593
4542.000000	53.816953
4540.000000	53.879689
4538.000000	53.943311
4536.000000	54.006443
4534.000000	54.069317
4532.000000	54.133258
4530.000000	54.198284
4528.000000	54.260472
4526.000000	54.322454
4524.000000	54.387470
4522.000000	54.452927
4520.000000	54.515770
4518.000000	54.578904
4516.000000	54.642764
4514.000000	54.706831
4512.000000	54.770722
4510.000000	54.836226
4508.000000	54.902131
4506.000000	54.967982
4504.000000	55.032987
4502.000000	55.098431
4500.000000	55.163943
4498.000000	55.229700
4496.000000	55.295242
4494.000000	55.361157
4492.000000	55.426602
4490.000000	55.492205
4488.000000	55.557588
4486.000000	55.622533
4484.000000	55.687505
4482.000000	55.752559
4480.000000	55.815796
4478.000000	55.879530
4476.000000	55.945003
4474.000000	56.010039
4472.000000	56.071953
4470.000000	56.132949
4468.000000	56.194322
4466.000000	56.258602
4464.000000	56.323701
4462.000000	56.386049
4460.000000	56.446165
4458.000000	56.508118
4456.000000	56.570713
4454.000000	56.632737
4452.000000	56.694247
4450.000000	56.757044
4448.000000	56.819264
4446.000000	56.879386
4444.000000	56.939423
4442.000000	57.002602
4440.000000	57.067083
4438.000000	57.130036
4436.000000	57.191638
4434.000000	57.254852
4432.000000	57.319208
4430.000000	57.382536
4428.000000	57.445455
4426.000000	57.509828
4424.000000	57.573328
4422.000000	57.634160
4420.000000	57.695885
4418.000000	57.760766
4416.000000	57.825710
4414.000000	57.890111
4412.000000	57.954594
4410.000000	58.019349
4408.000000	58.083612
4406.000000	58.148140
4404.000000	58.211382
4402.000000	58.274744
4400.000000	58.340555
4398.000000	58.408174
4396.000000	58.472494
4394.000000	58.534749
4392.000000	58.598240
4390.000000	58.663946
4388.000000	58.727869
4386.000000	58.788726
4384.000000	58.848632
4382.000000	58.909584
4380.000000	58.970494
4378.000000	59.031251
4376.000000	59.090867
4374.000000	59.149700
4372.000000	59.209192
4370.000000	59.269882
4368.000000	59.330058
4366.000000	59.390278
4364.000000	59.449991
4362.000000	59.509670
4360.000000	59.570615
4358.000000	59.633178
4356.000000	59.695506
4354.000000	59.759172
4352.000000	59.823627
4350.000000	59.887380
4348.000000	59.949925
4346.000000	60.012124
4344.000000	60.073304
4342.000000	60.135040
4340.000000	60.197898
4338.000000	60.262606
4336.000000	60.328325
4334.000000	60.393106
4332.000000	60.455159
4330.000000	60.518197
4328.000000	60.583863
4326.000000	60.649774
4324.000000	60.715524
4322.000000	60.783098
4320.000000	60.850533
4318.000000	60.917786
4316.000000	60.984735
4314.000000	61.051623
4312.000000	61.119186
4310.000000	61.186953
4308.000000	61.253407
4306.000000	61.320802
4304.000000	61.389057
4302.000000	61.456027
4300.000000	61.520309
4298.000000	61.584670
4296.000000	61.649677
4294.000000	61.714271
4292.000000	61.778569
