PE IR       SUBTECH     SPECTRUM    ASCII       PEDS        4.00        
   -1
TE109A_046_115K_SB.ASC
20/04/21
15:55:38.00
20/04/21
15:55:38.00
Administrator
TE109A, Tuesday, April 21 2020, 046.
1000.000000
#HDR
-1
-1
#GR
cm-1
EGY
1.0
0.0
6000.000000
-2.000000
2501
8
7.715305
0.796788
#DATA
6000.000000	1.378649
5998.000000	1.382405
5996.000000	1.385110
5994.000000	1.387456
5992.000000	1.389775
5990.000000	1.392937
5988.000000	1.396228
5986.000000	1.399535
5984.000000	1.401904
5982.000000	1.404907
5980.000000	1.408397
5978.000000	1.411251
5976.000000	1.413060
5974.000000	1.414087
5972.000000	1.417252
5970.000000	1.422207
5968.000000	1.425580
5966.000000	1.427435
5964.000000	1.428368
5962.000000	1.430583
5960.000000	1.433880
5958.000000	1.437277
5956.000000	1.441562
5954.000000	1.446175
5952.000000	1.449057
5950.000000	1.450579
5948.000000	1.451941
5946.000000	1.455148
5944.000000	1.459319
5942.000000	1.461993
5940.000000	1.464808
5938.000000	1.468199
5936.000000	1.471475
5934.000000	1.474070
5932.000000	1.476530
5930.000000	1.478995
5928.000000	1.481818
5926.000000	1.484065
5924.000000	1.487137
5922.000000	1.490436
5920.000000	1.494391
5918.000000	1.497565
5916.000000	1.499859
5914.000000	1.501793
5912.000000	1.504615
5910.000000	1.509222
5908.000000	1.513371
5906.000000	1.514814
5904.000000	1.516304
5902.000000	1.518964
5900.000000	1.522182
5898.000000	1.526099
5896.000000	1.529030
5894.000000	1.533016
5892.000000	1.536428
5890.000000	1.539370
5888.000000	1.542703
5886.000000	1.545427
5884.000000	1.547766
5882.000000	1.550099
5880.000000	1.552889
5878.000000	1.556740
5876.000000	1.560169
5874.000000	1.562902
5872.000000	1.565532
5870.000000	1.567711
5868.000000	1.571334
5866.000000	1.575539
5864.000000	1.579540
5862.000000	1.582576
5860.000000	1.584671
5858.000000	1.586808
5856.000000	1.590693
5854.000000	1.595497
5852.000000	1.599474
5850.000000	1.602676
5848.000000	1.604718
5846.000000	1.607178
5844.000000	1.611646
5842.000000	1.616396
5840.000000	1.620501
5838.000000	1.623691
5836.000000	1.626228
5834.000000	1.629444
5832.000000	1.632632
5830.000000	1.636112
5828.000000	1.640319
5826.000000	1.643983
5824.000000	1.646429
5822.000000	1.649034
5820.000000	1.652339
5818.000000	1.655279
5816.000000	1.658093
5814.000000	1.662252
5812.000000	1.666888
5810.000000	1.671590
5808.000000	1.675172
5806.000000	1.677961
5804.000000	1.680523
5802.000000	1.682801
5800.000000	1.686171
5798.000000	1.690935
5796.000000	1.694107
5794.000000	1.697288
5792.000000	1.700710
5790.000000	1.704126
5788.000000	1.706931
5786.000000	1.709637
5784.000000	1.712829
5782.000000	1.716790
5780.000000	1.719848
5778.000000	1.722831
5776.000000	1.726553
5774.000000	1.731100
5772.000000	1.736588
5770.000000	1.740450
5768.000000	1.742276
5766.000000	1.744811
5764.000000	1.749236
5762.000000	1.753781
5760.000000	1.756995
5758.000000	1.759436
5756.000000	1.763237
5754.000000	1.767701
5752.000000	1.770796
5750.000000	1.774668
5748.000000	1.778691
5746.000000	1.783492
5744.000000	1.786876
5742.000000	1.787962
5740.000000	1.789868
5738.000000	1.793119
5736.000000	1.797664
5734.000000	1.801925
5732.000000	1.804102
5730.000000	1.806253
5728.000000	1.808542
5726.000000	1.811028
5724.000000	1.816001
5722.000000	1.821369
5720.000000	1.825861
5718.000000	1.829196
5716.000000	1.832141
5714.000000	1.835685
5712.000000	1.839167
5710.000000	1.841922
5708.000000	1.844736
5706.000000	1.847763
5704.000000	1.851832
5702.000000	1.857299
5700.000000	1.862003
5698.000000	1.865041
5696.000000	1.867759
5694.000000	1.870746
5692.000000	1.875029
5690.000000	1.879466
5688.000000	1.883405
5686.000000	1.887044
5684.000000	1.889562
5682.000000	1.891852
5680.000000	1.894521
5678.000000	1.898760
5676.000000	1.905317
5674.000000	1.910418
5672.000000	1.914378
5670.000000	1.917525
5668.000000	1.920220
5666.000000	1.924640
5664.000000	1.929619
5662.000000	1.934520
5660.000000	1.938284
5658.000000	1.941360
5656.000000	1.945856
5654.000000	1.949005
5652.000000	1.951415
5650.000000	1.954437
5648.000000	1.958600
5646.000000	1.963582
5644.000000	1.967874
5642.000000	1.971041
5640.000000	1.974682
5638.000000	1.979183
5636.000000	1.984254
5634.000000	1.987948
5632.000000	1.989579
5630.000000	1.991649
5628.000000	1.996026
5626.000000	2.001994
5624.000000	2.007592
5622.000000	2.010545
5620.000000	2.012831
5618.000000	2.015831
5616.000000	2.019609
5614.000000	2.023598
5612.000000	2.027451
5610.000000	2.031036
5608.000000	2.035354
5606.000000	2.039993
5604.000000	2.044587
5602.000000	2.049190
5600.000000	2.052458
5598.000000	2.055151
5596.000000	2.058447
5594.000000	2.063500
5592.000000	2.067881
5590.000000	2.071083
5588.000000	2.074806
5586.000000	2.079983
5584.000000	2.083855
5582.000000	2.085658
5580.000000	2.087952
5578.000000	2.092312
5576.000000	2.097594
5574.000000	2.102104
5572.000000	2.105774
5570.000000	2.108932
5568.000000	2.113398
5566.000000	2.117688
5564.000000	2.122021
5562.000000	2.125768
5560.000000	2.129498
5558.000000	2.134467
5556.000000	2.140243
5554.000000	2.145338
5552.000000	2.149362
5550.000000	2.151835
5548.000000	2.153887
5546.000000	2.156990
5544.000000	2.162150
5542.000000	2.167601
5540.000000	2.171288
5538.000000	2.174658
5536.000000	2.177661
5534.000000	2.181710
5532.000000	2.187446
5530.000000	2.192345
5528.000000	2.195659
5526.000000	2.197486
5524.000000	2.200266
5522.000000	2.204257
5520.000000	2.207682
5518.000000	2.212302
5516.000000	2.218376
5514.000000	2.224195
5512.000000	2.228506
5510.000000	2.231337
5508.000000	2.234555
5506.000000	2.239195
5504.000000	2.243252
5502.000000	2.245271
5500.000000	2.247652
5498.000000	2.251209
5496.000000	2.256897
5494.000000	2.262989
5492.000000	2.267976
5490.000000	2.272079
5488.000000	2.275685
5486.000000	2.280096
5484.000000	2.283301
5482.000000	2.285781
5480.000000	2.289391
5478.000000	2.293832
5476.000000	2.299087
5474.000000	2.303910
5472.000000	2.307871
5470.000000	2.312192
5468.000000	2.315590
5466.000000	2.319991
5464.000000	2.324179
5462.000000	2.327118
5460.000000	2.330185
5458.000000	2.333801
5456.000000	2.340017
5454.000000	2.346491
5452.000000	2.350991
5450.000000	2.354772
5448.000000	2.359293
5446.000000	2.364013
5444.000000	2.368459
5442.000000	2.372399
5440.000000	2.375549
5438.000000	2.378343
5436.000000	2.381601
5434.000000	2.384860
5432.000000	2.388608
5430.000000	2.393175
5428.000000	2.399324
5426.000000	2.406034
5424.000000	2.410414
5422.000000	2.413317
5420.000000	2.416420
5418.000000	2.420235
5416.000000	2.423181
5414.000000	2.425328
5412.000000	2.430371
5410.000000	2.436412
5408.000000	2.441408
5406.000000	2.444609
5404.000000	2.448546
5402.000000	2.451791
5400.000000	2.454443
5398.000000	2.458302
5396.000000	2.463132
5394.000000	2.467210
5392.000000	2.470761
5390.000000	2.475637
5388.000000	2.481811
5386.000000	2.487369
5384.000000	2.491370
5382.000000	2.494366
5380.000000	2.497037
5378.000000	2.500195
5376.000000	2.504888
5374.000000	2.510700
5372.000000	2.516497
5370.000000	2.521561
5368.000000	2.524766
5366.000000	2.527750
5364.000000	2.531652
5362.000000	2.537091
5360.000000	2.541448
5358.000000	2.543922
5356.000000	2.546056
5354.000000	2.550651
5352.000000	2.557609
5350.000000	2.564498
5348.000000	2.567345
5346.000000	2.568150
5344.000000	2.570235
5342.000000	2.574158
5340.000000	2.578912
5338.000000	2.584004
5336.000000	2.589708
5334.000000	2.593437
5332.000000	2.596258
5330.000000	2.599698
5328.000000	2.603962
5326.000000	2.608916
5324.000000	2.613786
5322.000000	2.618229
5320.000000	2.621263
5318.000000	2.624647
5316.000000	2.628518
5314.000000	2.631926
5312.000000	2.634591
5310.000000	2.637423
5308.000000	2.642007
5306.000000	2.647953
5304.000000	2.653399
5302.000000	2.656915
5300.000000	2.658524
5298.000000	2.660561
5296.000000	2.664453
5294.000000	2.669375
5292.000000	2.673179
5290.000000	2.674869
5288.000000	2.677017
5286.000000	2.682045
5284.000000	2.687606
5282.000000	2.691966
5280.000000	2.695221
5278.000000	2.699314
5276.000000	2.702600
5274.000000	2.705188
5272.000000	2.707343
5270.000000	2.709568
5268.000000	2.711590
5266.000000	2.715540
5264.000000	2.719845
5262.000000	2.722163
5260.000000	2.723212
5258.000000	2.726203
5256.000000	2.730808
5254.000000	2.735003
5252.000000	2.737788
5250.000000	2.739855
5248.000000	2.741542
5246.000000	2.743392
5244.000000	2.746858
5242.000000	2.750323
5240.000000	2.754408
5238.000000	2.758100
5236.000000	2.761212
5234.000000	2.763659
5232.000000	2.765520
5230.000000	2.768544
5228.000000	2.771508
5226.000000	2.774657
5224.000000	2.777208
5222.000000	2.779179
5220.000000	2.780386
5218.000000	2.781350
5216.000000	2.784597
5214.000000	2.789852
5212.000000	2.793331
5210.000000	2.793063
5208.000000	2.792709
5206.000000	2.796018
5204.000000	2.800985
5202.000000	2.804458
5200.000000	2.806296
5198.000000	2.807891
5196.000000	2.809784
5194.000000	2.812995
5192.000000	2.816767
5190.000000	2.819863
5188.000000	2.821138
5186.000000	2.822525
5184.000000	2.824230
5182.000000	2.825912
5180.000000	2.827683
5178.000000	2.831992
5176.000000	2.837020
5174.000000	2.841128
5172.000000	2.843659
5170.000000	2.845377
5168.000000	2.845512
5166.000000	2.844964
5164.000000	2.846141
5162.000000	2.849907
5160.000000	2.854576
5158.000000	2.858521
5156.000000	2.861503
5154.000000	2.864321
5152.000000	2.867398
5150.000000	2.869889
5148.000000	2.872550
5146.000000	2.875220
5144.000000	2.877213
5142.000000	2.879658
5140.000000	2.883645
5138.000000	2.888450
5136.000000	2.891601
5134.000000	2.893523
5132.000000	2.896631
5130.000000	2.900037
5128.000000	2.902935
5126.000000	2.905535
5124.000000	2.908178
5122.000000	2.911083
5120.000000	2.914671
5118.000000	2.919090
5116.000000	2.923302
5114.000000	2.926924
5112.000000	2.929700
5110.000000	2.933015
5108.000000	2.937878
5106.000000	2.942609
5104.000000	2.946012
5102.000000	2.950304
5100.000000	2.954970
5098.000000	2.957653
5096.000000	2.958709
5094.000000	2.962414
5092.000000	2.968730
5090.000000	2.974263
5088.000000	2.977262
5086.000000	2.980287
5084.000000	2.984582
5082.000000	2.989471
5080.000000	2.994840
5078.000000	3.000653
5076.000000	3.005604
5074.000000	3.009094
5072.000000	3.011759
5070.000000	3.014176
5068.000000	3.017482
5066.000000	3.022409
5064.000000	3.028205
5062.000000	3.034793
5060.000000	3.040768
5058.000000	3.045061
5056.000000	3.048331
5054.000000	3.052391
5052.000000	3.057726
5050.000000	3.063098
5048.000000	3.067409
5046.000000	3.071629
5044.000000	3.075769
5042.000000	3.079802
5040.000000	3.083845
5038.000000	3.088364
5036.000000	3.092011
5034.000000	3.094791
5032.000000	3.097803
5030.000000	3.102214
5028.000000	3.108171
5026.000000	3.114295
5024.000000	3.118579
5022.000000	3.121687
5020.000000	3.126847
5018.000000	3.134066
5016.000000	3.139936
5014.000000	3.143150
5012.000000	3.145845
5010.000000	3.150635
5008.000000	3.157924
5006.000000	3.164897
5004.000000	3.169778
5002.000000	3.172838
5000.000000	3.177110
4998.000000	3.181990
4996.000000	3.186466
4994.000000	3.191124
4992.000000	3.195715
4990.000000	3.200349
4988.000000	3.205573
4986.000000	3.210945
4984.000000	3.216243
4982.000000	3.222243
4980.000000	3.229535
4978.000000	3.235675
4976.000000	3.240490
4974.000000	3.244990
4972.000000	3.249177
4970.000000	3.253714
4968.000000	3.258819
4966.000000	3.263605
4964.000000	3.267461
4962.000000	3.272558
4960.000000	3.278559
4958.000000	3.284212
4956.000000	3.288615
4954.000000	3.293325
4952.000000	3.299625
4950.000000	3.307120
4948.000000	3.312886
4946.000000	3.317076
4944.000000	3.322230
4942.000000	3.327578
4940.000000	3.332441
4938.000000	3.338003
4936.000000	3.343825
4934.000000	3.349026
4932.000000	3.354133
4930.000000	3.359601
4928.000000	3.365746
4926.000000	3.371413
4924.000000	3.375345
4922.000000	3.378084
4920.000000	3.382472
4918.000000	3.388074
4916.000000	3.393884
4914.000000	3.399672
4912.000000	3.406051
4910.000000	3.413644
4908.000000	3.420312
4906.000000	3.424398
4904.000000	3.427573
4902.000000	3.432845
4900.000000	3.440131
4898.000000	3.447730
4896.000000	3.453615
4894.000000	3.457980
4892.000000	3.462785
4890.000000	3.469169
4888.000000	3.475979
4886.000000	3.481729
4884.000000	3.488013
4882.000000	3.494914
4880.000000	3.501832
4878.000000	3.507441
4876.000000	3.512937
4874.000000	3.517312
4872.000000	3.522427
4870.000000	3.529552
4868.000000	3.536811
4866.000000	3.542891
4864.000000	3.548638
4862.000000	3.554206
4860.000000	3.559171
4858.000000	3.564974
4856.000000	3.571382
4854.000000	3.578074
4852.000000	3.584304
4850.000000	3.589591
4848.000000	3.594068
4846.000000	3.600081
4844.000000	3.606793
4842.000000	3.611905
4840.000000	3.617042
4838.000000	3.624702
4836.000000	3.632902
4834.000000	3.638870
4832.000000	3.643314
4830.000000	3.648123
4828.000000	3.653506
4826.000000	3.659088
4824.000000	3.664703
4822.000000	3.670883
4820.000000	3.678374
4818.000000	3.685963
4816.000000	3.692749
4814.000000	3.698307
4812.000000	3.704151
4810.000000	3.710545
4808.000000	3.717301
4806.000000	3.723414
4804.000000	3.730973
4802.000000	3.740793
4800.000000	3.748700
4798.000000	3.752617
4796.000000	3.756894
4794.000000	3.763206
4792.000000	3.769800
4790.000000	3.776555
4788.000000	3.783301
4786.000000	3.789191
4784.000000	3.795137
4782.000000	3.801766
4780.000000	3.809319
4778.000000	3.816443
4776.000000	3.822404
4774.000000	3.829137
4772.000000	3.837110
4770.000000	3.843817
4768.000000	3.849269
4766.000000	3.854623
4764.000000	3.860526
4762.000000	3.866937
4760.000000	3.874062
4758.000000	3.879776
4756.000000	3.884885
4754.000000	3.891421
4752.000000	3.898627
4750.000000	3.905392
4748.000000	3.912433
4746.000000	3.919782
4744.000000	3.925829
4742.000000	3.930979
4740.000000	3.935906
4738.000000	3.941400
4736.000000	3.948969
4734.000000	3.957676
4732.000000	3.964706
4730.000000	3.969727
4728.000000	3.974382
4726.000000	3.978913
4724.000000	3.984082
4722.000000	3.990340
4720.000000	3.997882
4718.000000	4.006086
4716.000000	4.015267
4714.000000	4.023409
4712.000000	4.029019
4710.000000	4.033112
4708.000000	4.038362
4706.000000	4.045656
4704.000000	4.053841
4702.000000	4.061430
4700.000000	4.067579
4698.000000	4.072983
4696.000000	4.079342
4694.000000	4.086310
4692.000000	4.093109
4690.000000	4.098878
4688.000000	4.104836
4686.000000	4.111603
4684.000000	4.118623
4682.000000	4.124546
4680.000000	4.130534
4678.000000	4.137625
4676.000000	4.144340
4674.000000	4.150358
4672.000000	4.156140
4670.000000	4.161405
4668.000000	4.166776
4666.000000	4.173620
4664.000000	4.181148
4662.000000	4.187790
4660.000000	4.193949
4658.000000	4.200556
4656.000000	4.207442
4654.000000	4.212795
4652.000000	4.217297
4650.000000	4.222812
4648.000000	4.229045
4646.000000	4.234934
4644.000000	4.241454
4642.000000	4.248890
4640.000000	4.256421
4638.000000	4.262732
4636.000000	4.267632
4634.000000	4.272900
4632.000000	4.279768
4630.000000	4.286002
4628.000000	4.291221
4626.000000	4.296752
4624.000000	4.301851
4622.000000	4.306938
4620.000000	4.314557
4618.000000	4.323251
4616.000000	4.329462
4614.000000	4.334368
4612.000000	4.340107
4610.000000	4.347662
4608.000000	4.354521
4606.000000	4.360333
4604.000000	4.365796
4602.000000	4.370836
4600.000000	4.375604
4598.000000	4.382249
4596.000000	4.389517
4594.000000	4.395560
4592.000000	4.401474
4590.000000	4.407692
4588.000000	4.414736
4586.000000	4.422287
4584.000000	4.429051
4582.000000	4.435037
4580.000000	4.440912
4578.000000	4.446069
4576.000000	4.449992
4574.000000	4.455401
4572.000000	4.463680
4570.000000	4.471100
4568.000000	4.475932
4566.000000	4.481887
4564.000000	4.488268
4562.000000	4.493042
4560.000000	4.497564
4558.000000	4.503586
4556.000000	4.510798
4554.000000	4.518786
4552.000000	4.525420
4550.000000	4.530003
4548.000000	4.534611
4546.000000	4.540398
4544.000000	4.545907
4542.000000	4.551471
4540.000000	4.558655
4538.000000	4.566020
4536.000000	4.571588
4534.000000	4.575491
4532.000000	4.580181
4530.000000	4.587460
4528.000000	4.595309
4526.000000	4.601177
4524.000000	4.605937
4522.000000	4.612419
4520.000000	4.619610
4518.000000	4.625038
4516.000000	4.629710
4514.000000	4.634787
4512.000000	4.639973
4510.000000	4.646692
4508.000000	4.653990
4506.000000	4.659101
4504.000000	4.664558
4502.000000	4.672511
4500.000000	4.679775
4498.000000	4.684545
4496.000000	4.689120
4494.000000	4.695051
4492.000000	4.701824
4490.000000	4.709104
4488.000000	4.717210
4486.000000	4.724731
4484.000000	4.730375
4482.000000	4.735514
4480.000000	4.740584
4478.000000	4.745634
4476.000000	4.752085
4474.000000	4.758483
4472.000000	4.763191
4470.000000	4.767664
4468.000000	4.772433
4466.000000	4.778157
4464.000000	4.784784
4462.000000	4.790129
4460.000000	4.794664
4458.000000	4.800084
4456.000000	4.806458
4454.000000	4.812968
4452.000000	4.819288
4450.000000	4.825472
4448.000000	4.831032
4446.000000	4.835887
4444.000000	4.841422
4442.000000	4.847728
4440.000000	4.853076
4438.000000	4.858204
4436.000000	4.864515
4434.000000	4.870323
4432.000000	4.874192
4430.000000	4.879574
4428.000000	4.887152
4426.000000	4.893387
4424.000000	4.896990
4422.000000	4.901070
4420.000000	4.907082
4418.000000	4.912432
4416.000000	4.916317
4414.000000	4.922056
4412.000000	4.928832
4410.000000	4.935046
4408.000000	4.942350
4406.000000	4.948614
4404.000000	4.951579
4402.000000	4.955842
4400.000000	4.963192
4398.000000	4.969529
4396.000000	4.974214
4394.000000	4.979534
4392.000000	4.985263
4390.000000	4.990542
4388.000000	4.995124
4386.000000	5.000016
4384.000000	5.005850
4382.000000	5.011796
4380.000000	5.017254
4378.000000	5.021484
4376.000000	5.024586
4374.000000	5.028319
4372.000000	5.033128
4370.000000	5.038175
4368.000000	5.043653
4366.000000	5.047808
4364.000000	5.050478
4362.000000	5.054817
4360.000000	5.060682
4358.000000	5.064944
4356.000000	5.069337
4354.000000	5.076016
4352.000000	5.082792
4350.000000	5.088819
4348.000000	5.093391
4346.000000	5.095656
4344.000000	5.098664
4342.000000	5.105184
4340.000000	5.111871
4338.000000	5.115550
4336.000000	5.118603
4334.000000	5.123980
4332.000000	5.131215
4330.000000	5.137132
4328.000000	5.140584
4326.000000	5.143240
4324.000000	5.146929
4322.000000	5.152425
4320.000000	5.158646
4318.000000	5.164196
4316.000000	5.168934
4314.000000	5.172992
4312.000000	5.177561
4310.000000	5.183314
4308.000000	5.188580
4306.000000	5.193188
4304.000000	5.198152
4302.000000	5.203666
4300.000000	5.208385
4298.000000	5.212146
4296.000000	5.216696
4294.000000	5.222844
4292.000000	5.228483
4290.000000	5.232888
4288.000000	5.237844
4286.000000	5.243052
4284.000000	5.246951
4282.000000	5.250670
4280.000000	5.255553
4278.000000	5.261202
4276.000000	5.265782
4274.000000	5.269496
4272.000000	5.272722
4270.000000	5.275506
4268.000000	5.279838
4266.000000	5.285398
4264.000000	5.290186
4262.000000	5.294966
4260.000000	5.299424
4258.000000	5.303550
4256.000000	5.308774
4254.000000	5.315473
4252.000000	5.321963
4250.000000	5.326170
4248.000000	5.329112
4246.000000	5.333367
4244.000000	5.337729
4242.000000	5.342636
4240.000000	5.348960
4238.000000	5.353244
4236.000000	5.356263
4234.000000	5.362807
4232.000000	5.370466
4230.000000	5.374860
4228.000000	5.378407
4226.000000	5.384073
4224.000000	5.388942
4222.000000	5.391978
4220.000000	5.396500
4218.000000	5.402255
4216.000000	5.407031
4214.000000	5.411520
