PE IR       SUBTECH     SPECTRUM    ASCII       PEDS        4.00        
   -1
TE109A_017_90K_BG.ASC
20/04/21
12:36:59.00
20/04/21
12:36:59.00
Administrator
TE109A, Tuesday, April 21 2020, 017.
1000.000000
#HDR
-1
-1
#GR
cm-1
EGY
1.0
0.0
6000.000000
-2.000000
2501
8
104.052453
10.961255
#DATA
6000.000000	15.524447
5998.000000	15.555490
5996.000000	15.584055
5994.000000	15.612888
5992.000000	15.640976
5990.000000	15.671236
5988.000000	15.703202
5986.000000	15.735992
5984.000000	15.766802
5982.000000	15.798223
5980.000000	15.830304
5978.000000	15.862679
5976.000000	15.894435
5974.000000	15.926156
5972.000000	15.957423
5970.000000	15.988153
5968.000000	16.017539
5966.000000	16.048201
5964.000000	16.078443
5962.000000	16.110899
5960.000000	16.142983
5958.000000	16.175646
5956.000000	16.206939
5954.000000	16.238050
5952.000000	16.269957
5950.000000	16.301883
5948.000000	16.334202
5946.000000	16.367456
5944.000000	16.399544
5942.000000	16.430677
5940.000000	16.460850
5938.000000	16.491318
5936.000000	16.522157
5934.000000	16.553134
5932.000000	16.585087
5930.000000	16.617532
5928.000000	16.648718
5926.000000	16.680243
5924.000000	16.712044
5922.000000	16.745224
5920.000000	16.778772
5918.000000	16.812779
5916.000000	16.845696
5914.000000	16.879002
5912.000000	16.910923
5910.000000	16.944798
5908.000000	16.979281
5906.000000	17.014718
5904.000000	17.050614
5902.000000	17.085457
5900.000000	17.120885
5898.000000	17.154564
5896.000000	17.186173
5894.000000	17.218294
5892.000000	17.251156
5890.000000	17.285418
5888.000000	17.317247
5886.000000	17.349004
5884.000000	17.382519
5882.000000	17.417683
5880.000000	17.451417
5878.000000	17.483825
5876.000000	17.515774
5874.000000	17.549997
5872.000000	17.585106
5870.000000	17.621195
5868.000000	17.655695
5866.000000	17.690284
5864.000000	17.723988
5862.000000	17.757747
5860.000000	17.791675
5858.000000	17.826070
5856.000000	17.860483
5854.000000	17.894642
5852.000000	17.929417
5850.000000	17.966221
5848.000000	18.003020
5846.000000	18.040671
5844.000000	18.077953
5842.000000	18.116495
5840.000000	18.155830
5838.000000	18.194998
5836.000000	18.233395
5834.000000	18.271296
5832.000000	18.308245
5830.000000	18.347299
5828.000000	18.385616
5826.000000	18.424034
5824.000000	18.462220
5822.000000	18.499836
5820.000000	18.538587
5818.000000	18.576416
5816.000000	18.614757
5814.000000	18.653225
5812.000000	18.690148
5810.000000	18.728438
5808.000000	18.766824
5806.000000	18.805571
5804.000000	18.842111
5802.000000	18.878752
5800.000000	18.916211
5798.000000	18.954348
5796.000000	18.991837
5794.000000	19.029381
5792.000000	19.069366
5790.000000	19.109810
5788.000000	19.147905
5786.000000	19.184577
5784.000000	19.220745
5782.000000	19.259910
5780.000000	19.298800
5778.000000	19.337359
5776.000000	19.375958
5774.000000	19.416371
5772.000000	19.456431
5770.000000	19.495905
5768.000000	19.534180
5766.000000	19.572616
5764.000000	19.610625
5762.000000	19.648627
5760.000000	19.685605
5758.000000	19.722728
5756.000000	19.762531
5754.000000	19.804842
5752.000000	19.845532
5750.000000	19.882458
5748.000000	19.919679
5746.000000	19.959150
5744.000000	19.997854
5742.000000	20.035373
5740.000000	20.073028
5738.000000	20.111766
5736.000000	20.148703
5734.000000	20.185127
5732.000000	20.222645
5730.000000	20.261123
5728.000000	20.299182
5726.000000	20.337837
5724.000000	20.376077
5722.000000	20.414244
5720.000000	20.452641
5718.000000	20.492902
5716.000000	20.533822
5714.000000	20.574574
5712.000000	20.614673
5710.000000	20.655206
5708.000000	20.695319
5706.000000	20.737438
5704.000000	20.779055
5702.000000	20.820426
5700.000000	20.858986
5698.000000	20.898212
5696.000000	20.940350
5694.000000	20.985094
5692.000000	21.029155
5690.000000	21.070950
5688.000000	21.111929
5686.000000	21.154773
5684.000000	21.196942
5682.000000	21.239944
5680.000000	21.282777
5678.000000	21.325264
5676.000000	21.366141
5674.000000	21.406623
5672.000000	21.447930
5670.000000	21.491460
5668.000000	21.534954
5666.000000	21.577722
5664.000000	21.618851
5662.000000	21.661035
5660.000000	21.703889
5658.000000	21.746396
5656.000000	21.788075
5654.000000	21.830625
5652.000000	21.874182
5650.000000	21.917342
5648.000000	21.958933
5646.000000	22.000977
5644.000000	22.043400
5642.000000	22.086705
5640.000000	22.128327
5638.000000	22.169174
5636.000000	22.210176
5634.000000	22.251945
5632.000000	22.293271
5630.000000	22.337051
5628.000000	22.381226
5626.000000	22.425148
5624.000000	22.467045
5622.000000	22.509471
5620.000000	22.551746
5618.000000	22.593760
5616.000000	22.634739
5614.000000	22.677634
5612.000000	22.720728
5610.000000	22.764556
5608.000000	22.807058
5606.000000	22.849716
5604.000000	22.891657
5602.000000	22.934826
5600.000000	22.977632
5598.000000	23.020168
5596.000000	23.061964
5594.000000	23.105063
5592.000000	23.148470
5590.000000	23.191632
5588.000000	23.234684
5586.000000	23.279601
5584.000000	23.325500
5582.000000	23.369794
5580.000000	23.412305
5578.000000	23.455037
5576.000000	23.498097
5574.000000	23.542404
5572.000000	23.587031
5570.000000	23.633163
5568.000000	23.678703
5566.000000	23.723870
5564.000000	23.767311
5562.000000	23.810749
5560.000000	23.855010
5558.000000	23.900748
5556.000000	23.946054
5554.000000	23.990776
5552.000000	24.035826
5550.000000	24.081905
5548.000000	24.126086
5546.000000	24.170055
5544.000000	24.213725
5542.000000	24.257783
5540.000000	24.300681
5538.000000	24.343314
5536.000000	24.386168
5534.000000	24.430628
5532.000000	24.476306
5530.000000	24.522977
5528.000000	24.567400
5526.000000	24.610926
5524.000000	24.654894
5522.000000	24.699593
5520.000000	24.743255
5518.000000	24.786731
5516.000000	24.830252
5514.000000	24.875550
5512.000000	24.919772
5510.000000	24.962080
5508.000000	25.003149
5506.000000	25.046693
5504.000000	25.095197
5502.000000	25.145230
5500.000000	25.192187
5498.000000	25.235282
5496.000000	25.273323
5494.000000	25.311826
5492.000000	25.352649
5490.000000	25.400717
5488.000000	25.452838
5486.000000	25.505312
5484.000000	25.556174
5482.000000	25.603863
5480.000000	25.643808
5478.000000	25.678477
5476.000000	25.717853
5474.000000	25.767798
5472.000000	25.820340
5470.000000	25.868504
5468.000000	25.912659
5466.000000	25.957025
5464.000000	26.000223
5462.000000	26.044345
5460.000000	26.091242
5458.000000	26.143095
5456.000000	26.197212
5454.000000	26.245709
5452.000000	26.285648
5450.000000	26.320520
5448.000000	26.356993
5446.000000	26.400024
5444.000000	26.445937
5442.000000	26.497297
5440.000000	26.548445
5438.000000	26.594040
5436.000000	26.636011
5434.000000	26.677828
5432.000000	26.719769
5430.000000	26.763710
5428.000000	26.814341
5426.000000	26.873705
5424.000000	26.932908
5422.000000	26.987829
5420.000000	27.035095
5418.000000	27.067511
5416.000000	27.089530
5414.000000	27.118178
5412.000000	27.163709
5410.000000	27.224797
5408.000000	27.288683
5406.000000	27.348116
5404.000000	27.398696
5402.000000	27.445700
5400.000000	27.490074
5398.000000	27.528028
5396.000000	27.560157
5394.000000	27.603071
5392.000000	27.659160
5390.000000	27.715751
5388.000000	27.760452
5386.000000	27.805121
5384.000000	27.858170
5382.000000	27.910469
5380.000000	27.949776
5378.000000	27.985616
5376.000000	28.031861
5374.000000	28.093015
5372.000000	28.154974
5370.000000	28.211124
5368.000000	28.259965
5366.000000	28.306441
5364.000000	28.352323
5362.000000	28.401838
5360.000000	28.451277
5358.000000	28.491344
5356.000000	28.520500
5354.000000	28.556045
5352.000000	28.605756
5350.000000	28.658642
5348.000000	28.696359
5346.000000	28.732236
5344.000000	28.778267
5342.000000	28.826427
5340.000000	28.870686
5338.000000	28.922331
5336.000000	28.984565
5334.000000	29.046461
5332.000000	29.097270
5330.000000	29.142201
5328.000000	29.188534
5326.000000	29.242232
5324.000000	29.302577
5322.000000	29.358167
5320.000000	29.405060
5318.000000	29.449825
5316.000000	29.496816
5314.000000	29.546897
5312.000000	29.592727
5310.000000	29.634079
5308.000000	29.678001
5306.000000	29.729327
5304.000000	29.783319
5302.000000	29.833834
5300.000000	29.881715
5298.000000	29.932877
5296.000000	29.982078
5294.000000	30.024579
5292.000000	30.063187
5290.000000	30.109964
5288.000000	30.163705
5286.000000	30.217073
5284.000000	30.267104
5282.000000	30.319158
5280.000000	30.371733
5278.000000	30.425316
5276.000000	30.479388
5274.000000	30.530531
5272.000000	30.574769
5270.000000	30.616365
5268.000000	30.654039
5266.000000	30.688315
5264.000000	30.727813
5262.000000	30.785085
5260.000000	30.850162
5258.000000	30.903278
5256.000000	30.946172
5254.000000	30.994097
5252.000000	31.042228
5250.000000	31.083671
5248.000000	31.123041
5246.000000	31.174428
5244.000000	31.237058
5242.000000	31.301574
5240.000000	31.361379
5238.000000	31.413897
5236.000000	31.460665
5234.000000	31.505327
5232.000000	31.549889
5230.000000	31.593934
5228.000000	31.633482
5226.000000	31.677127
5224.000000	31.731515
5222.000000	31.792844
5220.000000	31.849177
5218.000000	31.902049
5216.000000	31.954637
5214.000000	32.005019
5212.000000	32.046187
5210.000000	32.077576
5208.000000	32.112173
5206.000000	32.166687
5204.000000	32.235666
5202.000000	32.301395
5200.000000	32.353152
5198.000000	32.401364
5196.000000	32.453026
5194.000000	32.508135
5192.000000	32.560328
5190.000000	32.609392
5188.000000	32.656547
5186.000000	32.706469
5184.000000	32.759210
5182.000000	32.815276
5180.000000	32.870170
5178.000000	32.924396
5176.000000	32.976938
5174.000000	33.028073
5172.000000	33.077686
5170.000000	33.129750
5168.000000	33.182680
5166.000000	33.235076
5164.000000	33.286003
5162.000000	33.338778
5160.000000	33.390722
5158.000000	33.441312
5156.000000	33.493117
5154.000000	33.547718
5152.000000	33.600677
5150.000000	33.652344
5148.000000	33.703971
5146.000000	33.756493
5144.000000	33.807477
5142.000000	33.859418
5140.000000	33.911063
5138.000000	33.962609
5136.000000	34.014179
5134.000000	34.068112
5132.000000	34.121953
5130.000000	34.175073
5128.000000	34.225885
5126.000000	34.275870
5124.000000	34.325388
5122.000000	34.376051
5120.000000	34.427169
5118.000000	34.479954
5116.000000	34.533087
5114.000000	34.585669
5112.000000	34.637275
5110.000000	34.690230
5108.000000	34.743503
5106.000000	34.797013
5104.000000	34.849302
5102.000000	34.902411
5100.000000	34.955572
5098.000000	35.009194
5096.000000	35.062352
5094.000000	35.116483
5092.000000	35.171541
5090.000000	35.227433
5088.000000	35.282695
5086.000000	35.336204
5084.000000	35.388973
5082.000000	35.443463
5080.000000	35.497859
5078.000000	35.552290
5076.000000	35.606510
5074.000000	35.661173
5072.000000	35.715289
5070.000000	35.770556
5068.000000	35.825089
5066.000000	35.879905
5064.000000	35.935034
5062.000000	35.990150
5060.000000	36.043308
5058.000000	36.096108
5056.000000	36.148307
5054.000000	36.201094
5052.000000	36.254638
5050.000000	36.309556
5048.000000	36.364087
5046.000000	36.417907
5044.000000	36.469998
5042.000000	36.522689
5040.000000	36.577605
5038.000000	36.633122
5036.000000	36.686659
5034.000000	36.738693
5032.000000	36.790842
5030.000000	36.845502
5028.000000	36.900893
5026.000000	36.954897
5024.000000	37.005701
5022.000000	37.058585
5020.000000	37.114981
5018.000000	37.172065
5016.000000	37.226118
5014.000000	37.278480
5012.000000	37.331515
5010.000000	37.386784
5008.000000	37.443787
5006.000000	37.503488
5004.000000	37.558786
5002.000000	37.611078
5000.000000	37.663107
4998.000000	37.720056
4996.000000	37.776480
4994.000000	37.832922
4992.000000	37.889589
4990.000000	37.944466
4988.000000	37.997713
4986.000000	38.053493
4984.000000	38.111054
4982.000000	38.168361
4980.000000	38.225162
4978.000000	38.283060
4976.000000	38.339005
4974.000000	38.394334
4972.000000	38.449087
4970.000000	38.505196
4968.000000	38.560624
4966.000000	38.617155
4964.000000	38.673386
4962.000000	38.728918
4960.000000	38.782548
4958.000000	38.837030
4956.000000	38.892510
4954.000000	38.947835
4952.000000	39.001741
4950.000000	39.056425
4948.000000	39.111029
4946.000000	39.166290
4944.000000	39.221645
4942.000000	39.277808
4940.000000	39.332133
4938.000000	39.386698
4936.000000	39.441693
4934.000000	39.497113
4932.000000	39.551439
4930.000000	39.606083
4928.000000	39.660329
4926.000000	39.715598
4924.000000	39.771589
4922.000000	39.828361
4920.000000	39.883936
4918.000000	39.939670
4916.000000	39.995739
4914.000000	40.052038
4912.000000	40.107391
4910.000000	40.163275
4908.000000	40.219168
4906.000000	40.275021
4904.000000	40.331336
4902.000000	40.388672
4900.000000	40.444535
4898.000000	40.500437
4896.000000	40.556912
4894.000000	40.614643
4892.000000	40.672273
4890.000000	40.730438
4888.000000	40.788363
4886.000000	40.846219
4884.000000	40.903107
4882.000000	40.959720
4880.000000	41.016970
4878.000000	41.075855
4876.000000	41.133347
4874.000000	41.190267
4872.000000	41.247335
4870.000000	41.306140
4868.000000	41.362109
4866.000000	41.417470
4864.000000	41.474044
4862.000000	41.532212
4860.000000	41.587646
4858.000000	41.643148
4856.000000	41.700022
4854.000000	41.757952
4852.000000	41.814963
4850.000000	41.872549
4848.000000	41.928689
4846.000000	41.983522
4844.000000	42.038546
4842.000000	42.094842
4840.000000	42.150105
4838.000000	42.205879
4836.000000	42.262578
4834.000000	42.320003
4832.000000	42.376245
4830.000000	42.432554
4828.000000	42.486840
4826.000000	42.541686
4824.000000	42.598063
4822.000000	42.656856
4820.000000	42.714399
4818.000000	42.771415
4816.000000	42.827657
4814.000000	42.885483
4812.000000	42.942622
4810.000000	42.999810
4808.000000	43.056513
4806.000000	43.115162
4804.000000	43.174850
4802.000000	43.235084
4800.000000	43.293186
4798.000000	43.351146
4796.000000	43.410088
4794.000000	43.471016
4792.000000	43.531573
4790.000000	43.590856
4788.000000	43.647722
4786.000000	43.705622
4784.000000	43.764067
4782.000000	43.822991
4780.000000	43.881839
4778.000000	43.941446
4776.000000	43.998816
4774.000000	44.056420
4772.000000	44.113431
4770.000000	44.171274
4768.000000	44.229007
4766.000000	44.287463
4764.000000	44.342683
4762.000000	44.398035
4760.000000	44.455140
4758.000000	44.512268
4756.000000	44.566961
4754.000000	44.624190
4752.000000	44.683684
4750.000000	44.742220
4748.000000	44.798493
4746.000000	44.855785
4744.000000	44.912257
4742.000000	44.968202
4740.000000	45.023927
4738.000000	45.081240
4736.000000	45.137568
4734.000000	45.194602
4732.000000	45.251069
4730.000000	45.308626
4728.000000	45.365859
4726.000000	45.424339
4724.000000	45.482100
4722.000000	45.540886
4720.000000	45.599157
4718.000000	45.657973
4716.000000	45.716788
4714.000000	45.777071
4712.000000	45.838012
4710.000000	45.899723
4708.000000	45.960827
4706.000000	46.022541
4704.000000	46.083459
4702.000000	46.145280
4700.000000	46.208626
4698.000000	46.272025
4696.000000	46.332228
4694.000000	46.392137
4692.000000	46.452491
4690.000000	46.512758
4688.000000	46.571639
4686.000000	46.631793
4684.000000	46.691539
4682.000000	46.751288
4680.000000	46.810329
4678.000000	46.871799
4676.000000	46.933287
4674.000000	46.993929
4672.000000	47.052839
4670.000000	47.112653
4668.000000	47.172256
4666.000000	47.232400
4664.000000	47.291438
4662.000000	47.351216
4660.000000	47.410664
4658.000000	47.469911
4656.000000	47.528383
4654.000000	47.588371
4652.000000	47.647676
4650.000000	47.707185
4648.000000	47.767173
4646.000000	47.828241
4644.000000	47.888130
4642.000000	47.948572
4640.000000	48.009295
4638.000000	48.069707
4636.000000	48.128883
4634.000000	48.189519
4632.000000	48.249335
4630.000000	48.309118
4628.000000	48.369067
4626.000000	48.429927
4624.000000	48.489752
4622.000000	48.548828
4620.000000	48.608170
4618.000000	48.670577
4616.000000	48.732966
4614.000000	48.794976
4612.000000	48.856981
4610.000000	48.919288
4608.000000	48.981301
4606.000000	49.045397
4604.000000	49.109875
4602.000000	49.173739
4600.000000	49.236130
4598.000000	49.299765
4596.000000	49.364865
4594.000000	49.430768
4592.000000	49.495244
4590.000000	49.559376
4588.000000	49.622142
4586.000000	49.684458
4584.000000	49.745769
4582.000000	49.808113
4580.000000	49.870500
4578.000000	49.933271
4576.000000	49.995264
4574.000000	50.058752
4572.000000	50.122970
4570.000000	50.187726
4568.000000	50.250704
4566.000000	50.313640
4564.000000	50.376226
4562.000000	50.438755
4560.000000	50.498714
4558.000000	50.558965
4556.000000	50.620197
4554.000000	50.682405
4552.000000	50.742339
4550.000000	50.803470
4548.000000	50.865696
4546.000000	50.926090
4544.000000	50.983868
4542.000000	51.046323
4540.000000	51.110620
4538.000000	51.171562
4536.000000	51.230628
4534.000000	51.294007
4532.000000	51.359487
4530.000000	51.422895
4528.000000	51.483009
4526.000000	51.544932
4524.000000	51.607856
4522.000000	51.669196
4520.000000	51.728915
4518.000000	51.791356
4516.000000	51.856496
4514.000000	51.923564
4512.000000	51.989519
4510.000000	52.054324
4508.000000	52.117415
4506.000000	52.180597
4504.000000	52.243494
4502.000000	52.308183
4500.000000	52.373875
4498.000000	52.440338
4496.000000	52.504878
4494.000000	52.567964
4492.000000	52.630551
4490.000000	52.695485
4488.000000	52.760712
4486.000000	52.826658
4484.000000	52.891423
4482.000000	52.954748
4480.000000	53.017218
4478.000000	53.080372
4476.000000	53.141828
4474.000000	53.202793
4472.000000	53.263631
4470.000000	53.325775
4468.000000	53.388473
4466.000000	53.451919
4464.000000	53.513504
4462.000000	53.574646
4460.000000	53.635557
4458.000000	53.696730
4456.000000	53.757923
4454.000000	53.820665
4452.000000	53.881476
4450.000000	53.940916
4448.000000	54.001897
4446.000000	54.065541
4444.000000	54.128450
4442.000000	54.191686
4440.000000	54.253529
4438.000000	54.313250
4436.000000	54.371564
4434.000000	54.433278
4432.000000	54.497132
4430.000000	54.562074
4428.000000	54.624852
4426.000000	54.686792
4424.000000	54.747264
4422.000000	54.808273
4420.000000	54.870561
4418.000000	54.935381
4416.000000	54.998952
4414.000000	55.063390
4412.000000	55.128773
4410.000000	55.193412
4408.000000	55.255677
4406.000000	55.319122
4404.000000	55.383333
4402.000000	55.447388
4400.000000	55.510051
4398.000000	55.574301
4396.000000	55.639166
4394.000000	55.702252
4392.000000	55.762965
4390.000000	55.824881
4388.000000	55.887497
4386.000000	55.950145
4384.000000	56.010862
4382.000000	56.070323
4380.000000	56.127452
4378.000000	56.185835
4376.000000	56.246070
4374.000000	56.307610
4372.000000	56.368241
4370.000000	56.428158
4368.000000	56.485188
4366.000000	56.543685
4364.000000	56.603577
4362.000000	56.664497
4360.000000	56.725684
4358.000000	56.786937
4356.000000	56.846682
4354.000000	56.907533
4352.000000	56.968616
4350.000000	57.031590
4348.000000	57.096531
4346.000000	57.161874
4344.000000	57.224370
4342.000000	57.286726
4340.000000	57.348918
4338.000000	57.411083
4336.000000	57.472969
4334.000000	57.535455
4332.000000	57.596941
4330.000000	57.660301
4328.000000	57.724996
4326.000000	57.790270
4324.000000	57.854501
4322.000000	57.920196
4320.000000	57.985191
4318.000000	58.050229
4316.000000	58.118462
4314.000000	58.190024
4312.000000	58.257026
4310.000000	58.321114
4308.000000	58.386317
4306.000000	58.454063
4304.000000	58.520689
4302.000000	58.586550
4300.000000	58.651772
4298.000000	58.716916
4296.000000	58.781535
4294.000000	58.847341
4292.000000	58.910992
