PE IR       SUBTECH     SPECTRUM    ASCII       PEDS        4.00        
   -1
TE109A_047_115K_BG.ASC
20/04/21
15:59:04.00
20/04/21
15:59:04.00
Administrator
TE109A, Tuesday, April 21 2020, 047.
1000.000000
#HDR
-1
-1
#GR
cm-1
EGY
1.0
0.0
6000.000000
-2.000000
2501
8
105.285818
10.938078
#DATA
6000.000000	16.344538
5998.000000	16.376661
5996.000000	16.408508
5994.000000	16.441731
5992.000000	16.475737
5990.000000	16.509494
5988.000000	16.541579
5986.000000	16.572442
5984.000000	16.602481
5982.000000	16.635229
5980.000000	16.668252
5978.000000	16.702047
5976.000000	16.736100
5974.000000	16.770003
5972.000000	16.802875
5970.000000	16.835934
5968.000000	16.868206
5966.000000	16.902427
5964.000000	16.937870
5962.000000	16.972264
5960.000000	17.005394
5958.000000	17.037660
5956.000000	17.072591
5954.000000	17.110281
5952.000000	17.145088
5950.000000	17.177936
5948.000000	17.210239
5946.000000	17.242880
5944.000000	17.275380
5942.000000	17.307649
5940.000000	17.340162
5938.000000	17.374243
5936.000000	17.407164
5934.000000	17.437919
5932.000000	17.469851
5930.000000	17.503877
5928.000000	17.539734
5926.000000	17.575819
5924.000000	17.610682
5922.000000	17.645458
5920.000000	17.680340
5918.000000	17.717015
5916.000000	17.753228
5914.000000	17.790093
5912.000000	17.827562
5910.000000	17.864531
5908.000000	17.902162
5906.000000	17.938795
5904.000000	17.973722
5902.000000	18.008806
5900.000000	18.044740
5898.000000	18.080795
5896.000000	18.116956
5894.000000	18.153998
5892.000000	18.191477
5890.000000	18.228076
5888.000000	18.261203
5886.000000	18.294982
5884.000000	18.330531
5882.000000	18.367130
5880.000000	18.401767
5878.000000	18.437032
5876.000000	18.472190
5874.000000	18.508872
5872.000000	18.546297
5870.000000	18.583118
5868.000000	18.619213
5866.000000	18.654961
5864.000000	18.690909
5862.000000	18.728511
5860.000000	18.766922
5858.000000	18.806275
5856.000000	18.843683
5854.000000	18.878378
5852.000000	18.914635
5850.000000	18.952963
5848.000000	18.992128
5846.000000	19.031759
5844.000000	19.071543
5842.000000	19.111959
5840.000000	19.152200
5838.000000	19.192815
5836.000000	19.236725
5834.000000	19.282204
5832.000000	19.325406
5830.000000	19.365451
5828.000000	19.404184
5826.000000	19.444290
5824.000000	19.485194
5822.000000	19.525838
5820.000000	19.566301
5818.000000	19.606728
5816.000000	19.645539
5814.000000	19.682829
5812.000000	19.722524
5810.000000	19.763943
5808.000000	19.806229
5806.000000	19.847186
5804.000000	19.886575
5802.000000	19.926515
5800.000000	19.967278
5798.000000	20.009253
5796.000000	20.051236
5794.000000	20.092538
5792.000000	20.131464
5790.000000	20.172375
5788.000000	20.214032
5786.000000	20.257032
5784.000000	20.299641
5782.000000	20.340272
5780.000000	20.380713
5778.000000	20.420943
5776.000000	20.460330
5774.000000	20.501125
5772.000000	20.542499
5770.000000	20.585283
5768.000000	20.627425
5766.000000	20.669356
5764.000000	20.711797
5762.000000	20.753502
5760.000000	20.794275
5758.000000	20.834663
5756.000000	20.876701
5754.000000	20.920136
5752.000000	20.961583
5750.000000	21.001839
5748.000000	21.041745
5746.000000	21.083573
5744.000000	21.124705
5742.000000	21.165396
5740.000000	21.206344
5738.000000	21.247388
5736.000000	21.287865
5734.000000	21.327189
5732.000000	21.366786
5730.000000	21.408299
5728.000000	21.449331
5726.000000	21.488251
5724.000000	21.528242
5722.000000	21.570937
5720.000000	21.615002
5718.000000	21.658380
5716.000000	21.700168
5714.000000	21.742613
5712.000000	21.785342
5710.000000	21.829549
5708.000000	21.872967
5706.000000	21.915598
5704.000000	21.957778
5702.000000	22.002351
5700.000000	22.047548
5698.000000	22.092513
5696.000000	22.137196
5694.000000	22.183304
5692.000000	22.226496
5690.000000	22.268729
5688.000000	22.312913
5686.000000	22.360257
5684.000000	22.407556
5682.000000	22.453259
5680.000000	22.497851
5678.000000	22.543892
5676.000000	22.589921
5674.000000	22.635717
5672.000000	22.681296
5670.000000	22.725847
5668.000000	22.769760
5666.000000	22.813408
5664.000000	22.857342
5662.000000	22.901999
5660.000000	22.948338
5658.000000	22.995434
5656.000000	23.040843
5654.000000	23.084690
5652.000000	23.129788
5650.000000	23.178060
5648.000000	23.224440
5646.000000	23.268003
5644.000000	23.311046
5642.000000	23.356681
5640.000000	23.402988
5638.000000	23.446782
5636.000000	23.490782
5634.000000	23.535472
5632.000000	23.580751
5630.000000	23.626980
5628.000000	23.672420
5626.000000	23.717756
5624.000000	23.761220
5622.000000	23.805371
5620.000000	23.852413
5618.000000	23.900486
5616.000000	23.948442
5614.000000	23.993573
5612.000000	24.037013
5610.000000	24.080326
5608.000000	24.124676
5606.000000	24.169831
5604.000000	24.216102
5602.000000	24.263615
5600.000000	24.310595
5598.000000	24.356953
5596.000000	24.401738
5594.000000	24.446626
5592.000000	24.491650
5590.000000	24.538069
5588.000000	24.585700
5586.000000	24.634284
5584.000000	24.682492
5582.000000	24.729610
5580.000000	24.774975
5578.000000	24.820189
5576.000000	24.865753
5574.000000	24.913155
5572.000000	24.961382
5570.000000	25.011066
5568.000000	25.059251
5566.000000	25.105761
5564.000000	25.151021
5562.000000	25.197509
5560.000000	25.245288
5558.000000	25.292488
5556.000000	25.339052
5554.000000	25.385597
5552.000000	25.433587
5550.000000	25.482119
5548.000000	25.528932
5546.000000	25.576148
5544.000000	25.623566
5542.000000	25.671585
5540.000000	25.718493
5538.000000	25.766311
5536.000000	25.815643
5534.000000	25.862798
5532.000000	25.908364
5530.000000	25.955421
5528.000000	26.003741
5526.000000	26.049486
5524.000000	26.093005
5522.000000	26.140660
5520.000000	26.190069
5518.000000	26.237982
5516.000000	26.284226
5514.000000	26.333140
5512.000000	26.381600
5510.000000	26.425492
5508.000000	26.468361
5506.000000	26.514576
5504.000000	26.565601
5502.000000	26.617893
5500.000000	26.669240
5498.000000	26.715671
5496.000000	26.756947
5494.000000	26.800334
5492.000000	26.847243
5490.000000	26.897233
5488.000000	26.947424
5486.000000	27.000764
5484.000000	27.056240
5482.000000	27.107964
5480.000000	27.152122
5478.000000	27.192430
5476.000000	27.236133
5474.000000	27.287588
5472.000000	27.341609
5470.000000	27.393179
5468.000000	27.441439
5466.000000	27.488654
5464.000000	27.535597
5462.000000	27.582926
5460.000000	27.632502
5458.000000	27.685569
5456.000000	27.739377
5454.000000	27.790880
5452.000000	27.836735
5450.000000	27.880741
5448.000000	27.921971
5446.000000	27.965286
5444.000000	28.009973
5442.000000	28.061549
5440.000000	28.115531
5438.000000	28.164746
5436.000000	28.211784
5434.000000	28.259114
5432.000000	28.304977
5430.000000	28.351307
5428.000000	28.403111
5426.000000	28.463652
5424.000000	28.523867
5422.000000	28.579660
5420.000000	28.628924
5418.000000	28.666912
5416.000000	28.698507
5414.000000	28.736657
5412.000000	28.785931
5410.000000	28.843759
5408.000000	28.901521
5406.000000	28.959112
5404.000000	29.013459
5402.000000	29.062642
5400.000000	29.107955
5398.000000	29.149599
5396.000000	29.190482
5394.000000	29.238992
5392.000000	29.297771
5390.000000	29.357099
5388.000000	29.405797
5386.000000	29.452743
5384.000000	29.505793
5382.000000	29.560202
5380.000000	29.605071
5378.000000	29.645915
5376.000000	29.693619
5374.000000	29.753744
5372.000000	29.816135
5370.000000	29.870793
5368.000000	29.917571
5366.000000	29.964167
5364.000000	30.014721
5362.000000	30.067895
5360.000000	30.121139
5358.000000	30.167874
5356.000000	30.207382
5354.000000	30.249860
5352.000000	30.300756
5350.000000	30.354657
5348.000000	30.397266
5346.000000	30.436961
5344.000000	30.484455
5342.000000	30.536521
5340.000000	30.586802
5338.000000	30.640402
5336.000000	30.701419
5334.000000	30.762540
5332.000000	30.814050
5330.000000	30.860153
5328.000000	30.908143
5326.000000	30.962408
5324.000000	31.020555
5322.000000	31.074502
5320.000000	31.125123
5318.000000	31.177405
5316.000000	31.232101
5314.000000	31.286315
5312.000000	31.334090
5310.000000	31.376399
5308.000000	31.420331
5306.000000	31.471523
5304.000000	31.526322
5302.000000	31.579496
5300.000000	31.633036
5298.000000	31.686751
5296.000000	31.736408
5294.000000	31.782415
5292.000000	31.830750
5290.000000	31.883920
5288.000000	31.937154
5286.000000	31.989103
5284.000000	32.042554
5282.000000	32.097915
5280.000000	32.151565
5278.000000	32.204962
5276.000000	32.259304
5274.000000	32.311605
5272.000000	32.359776
5270.000000	32.407392
5268.000000	32.452290
5266.000000	32.493298
5264.000000	32.538693
5262.000000	32.596460
5260.000000	32.658274
5258.000000	32.711670
5256.000000	32.760575
5254.000000	32.812588
5252.000000	32.862046
5250.000000	32.905222
5248.000000	32.948338
5246.000000	33.001589
5244.000000	33.063956
5242.000000	33.128401
5240.000000	33.188964
5238.000000	33.243253
5236.000000	33.293454
5234.000000	33.341907
5232.000000	33.389134
5230.000000	33.437136
5228.000000	33.483709
5226.000000	33.532009
5224.000000	33.586719
5222.000000	33.646011
5220.000000	33.701157
5218.000000	33.753078
5216.000000	33.809304
5214.000000	33.866931
5212.000000	33.914799
5210.000000	33.952369
5208.000000	33.992158
5206.000000	34.047440
5204.000000	34.113777
5202.000000	34.178091
5200.000000	34.231246
5198.000000	34.280222
5196.000000	34.332540
5194.000000	34.388293
5192.000000	34.443354
5190.000000	34.497489
5188.000000	34.548159
5186.000000	34.599638
5184.000000	34.654753
5182.000000	34.714057
5180.000000	34.771280
5178.000000	34.825521
5176.000000	34.879808
5174.000000	34.933383
5172.000000	34.985664
5170.000000	35.039092
5168.000000	35.093834
5166.000000	35.148059
5164.000000	35.201323
5162.000000	35.255748
5160.000000	35.311801
5158.000000	35.367703
5156.000000	35.422263
5154.000000	35.475556
5152.000000	35.527855
5150.000000	35.583018
5148.000000	35.639752
5146.000000	35.695796
5144.000000	35.748331
5142.000000	35.801093
5140.000000	35.855225
5138.000000	35.909693
5136.000000	35.963120
5134.000000	36.017628
5132.000000	36.073104
5130.000000	36.128612
5128.000000	36.180855
5126.000000	36.232582
5124.000000	36.286415
5122.000000	36.341452
5120.000000	36.394508
5118.000000	36.447454
5116.000000	36.502804
5114.000000	36.558881
5112.000000	36.613481
5110.000000	36.666882
5108.000000	36.720552
5106.000000	36.776331
5104.000000	36.833152
5102.000000	36.889581
5100.000000	36.944760
5098.000000	37.000385
5096.000000	37.056011
5094.000000	37.112057
5092.000000	37.167486
5090.000000	37.223792
5088.000000	37.278878
5086.000000	37.333979
5084.000000	37.388585
5082.000000	37.445154
5080.000000	37.502876
5078.000000	37.561883
5076.000000	37.619154
5074.000000	37.675013
5072.000000	37.731436
5070.000000	37.789182
5068.000000	37.845649
5066.000000	37.900806
5064.000000	37.955521
5062.000000	38.011788
5060.000000	38.069356
5058.000000	38.125787
5056.000000	38.180962
5054.000000	38.237850
5052.000000	38.295507
5050.000000	38.350958
5048.000000	38.404300
5046.000000	38.458514
5044.000000	38.514743
5042.000000	38.571567
5040.000000	38.627739
5038.000000	38.684420
5036.000000	38.741603
5034.000000	38.797957
5032.000000	38.851494
5030.000000	38.905880
5028.000000	38.962275
5026.000000	39.019611
5024.000000	39.074506
5022.000000	39.128436
5020.000000	39.183325
5018.000000	39.240835
5016.000000	39.298593
5014.000000	39.355501
5012.000000	39.412403
5010.000000	39.471066
5008.000000	39.528698
5006.000000	39.583554
5004.000000	39.638381
5002.000000	39.696660
5000.000000	39.755126
4998.000000	39.813053
4996.000000	39.870805
4994.000000	39.928356
4992.000000	39.984329
4990.000000	40.042760
4988.000000	40.103369
4986.000000	40.162293
4984.000000	40.217991
4982.000000	40.276163
4980.000000	40.336905
4978.000000	40.396176
4976.000000	40.451414
4974.000000	40.506535
4972.000000	40.565355
4970.000000	40.625419
4968.000000	40.682984
4966.000000	40.739400
4964.000000	40.797675
4962.000000	40.857354
4960.000000	40.913405
4958.000000	40.968083
4956.000000	41.024069
4954.000000	41.081198
4952.000000	41.136638
4950.000000	41.192704
4948.000000	41.251246
4946.000000	41.310164
4944.000000	41.366753
4942.000000	41.422117
4940.000000	41.477820
4938.000000	41.534489
4936.000000	41.591436
4934.000000	41.647363
4932.000000	41.702667
4930.000000	41.759492
4928.000000	41.818805
4926.000000	41.877811
4924.000000	41.934570
4922.000000	41.990827
4920.000000	42.046931
4918.000000	42.105616
4916.000000	42.164797
4914.000000	42.222876
4912.000000	42.278846
4910.000000	42.336933
4908.000000	42.395699
4906.000000	42.453906
4904.000000	42.510401
4902.000000	42.568260
4900.000000	42.627297
4898.000000	42.686930
4896.000000	42.745389
4894.000000	42.803047
4892.000000	42.860535
4890.000000	42.919838
4888.000000	42.981008
4886.000000	43.042099
4884.000000	43.101067
4882.000000	43.160018
4880.000000	43.218926
4878.000000	43.277709
4876.000000	43.334980
4874.000000	43.392783
4872.000000	43.451211
4870.000000	43.509818
4868.000000	43.567748
4866.000000	43.626723
4864.000000	43.685842
4862.000000	43.743248
4860.000000	43.799282
4858.000000	43.857053
4856.000000	43.916726
4854.000000	43.975581
4852.000000	44.032409
4850.000000	44.090643
4848.000000	44.149617
4846.000000	44.207833
4844.000000	44.265623
4842.000000	44.324734
4840.000000	44.381376
4838.000000	44.437832
4836.000000	44.496335
4834.000000	44.555209
4832.000000	44.612155
4830.000000	44.668519
4828.000000	44.726194
4826.000000	44.786069
4824.000000	44.845396
4822.000000	44.901727
4820.000000	44.957377
4818.000000	45.016924
4816.000000	45.076650
4814.000000	45.134361
4812.000000	45.192124
4810.000000	45.251454
4808.000000	45.310565
4806.000000	45.371340
4804.000000	45.433492
4802.000000	45.493990
4800.000000	45.552474
4798.000000	45.612433
4796.000000	45.673589
4794.000000	45.734495
4792.000000	45.793450
4790.000000	45.851898
4788.000000	45.911823
4786.000000	45.972916
4784.000000	46.033644
4782.000000	46.094471
4780.000000	46.154533
4778.000000	46.214382
4776.000000	46.274640
4774.000000	46.334462
4772.000000	46.392050
4770.000000	46.451229
4768.000000	46.511814
4766.000000	46.572000
4764.000000	46.631459
4762.000000	46.691549
4760.000000	46.750265
4758.000000	46.808529
4756.000000	46.865864
4754.000000	46.923507
4752.000000	46.981923
4750.000000	47.040433
4748.000000	47.097390
4746.000000	47.155587
4744.000000	47.214421
4742.000000	47.272339
4740.000000	47.330086
4738.000000	47.387783
4736.000000	47.444505
4734.000000	47.502455
4732.000000	47.561403
4730.000000	47.620887
4728.000000	47.680691
4726.000000	47.741425
4724.000000	47.800586
4722.000000	47.860423
4720.000000	47.920824
4718.000000	47.981672
4716.000000	48.041821
4714.000000	48.102981
4712.000000	48.165222
4710.000000	48.228380
4708.000000	48.291682
4706.000000	48.353956
4704.000000	48.414846
4702.000000	48.476447
4700.000000	48.540451
4698.000000	48.605894
4696.000000	48.668508
4694.000000	48.728776
4692.000000	48.789307
4690.000000	48.851868
4688.000000	48.914197
4686.000000	48.976659
4684.000000	49.037110
4682.000000	49.095685
4680.000000	49.155395
4678.000000	49.218900
4676.000000	49.281514
4674.000000	49.341656
4672.000000	49.401795
4670.000000	49.462972
4668.000000	49.522604
4666.000000	49.582934
4664.000000	49.645626
4662.000000	49.708147
4660.000000	49.766598
4658.000000	49.824791
4656.000000	49.884766
4654.000000	49.945982
4652.000000	50.006929
4650.000000	50.068873
4648.000000	50.130176
4646.000000	50.190517
4644.000000	50.250784
4642.000000	50.313508
4640.000000	50.376975
4638.000000	50.437942
4636.000000	50.496609
4634.000000	50.556914
4632.000000	50.618676
4630.000000	50.681249
4628.000000	50.742627
4626.000000	50.802804
4624.000000	50.862238
4622.000000	50.924138
4620.000000	50.988260
4618.000000	51.051607
4616.000000	51.112581
4614.000000	51.175508
4612.000000	51.239506
4610.000000	51.303690
4608.000000	51.369494
4606.000000	51.437461
4604.000000	51.502975
4602.000000	51.565974
4600.000000	51.629125
4598.000000	51.695811
4596.000000	51.762458
4594.000000	51.826589
4592.000000	51.888586
4590.000000	51.952051
4588.000000	52.016986
4586.000000	52.081189
4584.000000	52.142135
4582.000000	52.204936
4580.000000	52.271705
4578.000000	52.337865
4576.000000	52.400115
4574.000000	52.463779
4572.000000	52.529062
4570.000000	52.593243
4568.000000	52.657637
4566.000000	52.722593
4564.000000	52.784509
4562.000000	52.846441
4560.000000	52.908818
4558.000000	52.970343
4556.000000	53.032171
4554.000000	53.096579
4552.000000	53.159954
4550.000000	53.221429
4548.000000	53.282584
4546.000000	53.345842
4544.000000	53.408990
4542.000000	53.470911
4540.000000	53.532959
4538.000000	53.596732
4536.000000	53.660631
4534.000000	53.724859
4532.000000	53.787730
4530.000000	53.848141
4528.000000	53.908028
4526.000000	53.973349
4524.000000	54.040888
4522.000000	54.106085
4520.000000	54.169423
4518.000000	54.234260
4516.000000	54.298787
4514.000000	54.362950
4512.000000	54.426282
4510.000000	54.489887
4508.000000	54.555324
4506.000000	54.622946
4504.000000	54.690546
4502.000000	54.757552
4500.000000	54.822204
4498.000000	54.885785
4496.000000	54.950006
4494.000000	55.015771
4492.000000	55.082038
4490.000000	55.149516
4488.000000	55.215648
4486.000000	55.279766
4484.000000	55.342807
4482.000000	55.406809
4480.000000	55.469938
4478.000000	55.533644
4476.000000	55.598741
4474.000000	55.662934
4472.000000	55.723945
4470.000000	55.786869
4468.000000	55.851392
4466.000000	55.915017
4464.000000	55.977704
4462.000000	56.040169
4460.000000	56.100203
4458.000000	56.159293
4456.000000	56.219937
4454.000000	56.284793
4452.000000	56.350673
4450.000000	56.413767
4448.000000	56.473810
4446.000000	56.536031
4444.000000	56.599709
4442.000000	56.661864
4440.000000	56.722670
4438.000000	56.784563
4436.000000	56.846336
4434.000000	56.910355
4432.000000	56.974999
4430.000000	57.037918
4428.000000	57.099674
4426.000000	57.162742
4424.000000	57.226381
4422.000000	57.290559
4420.000000	57.353431
4418.000000	57.416417
4416.000000	57.481149
4414.000000	57.548507
4412.000000	57.615237
4410.000000	57.680424
4408.000000	57.743783
4406.000000	57.806136
4404.000000	57.868877
4402.000000	57.934366
4400.000000	57.999702
4398.000000	58.064498
4396.000000	58.128281
4394.000000	58.192083
4392.000000	58.255609
4390.000000	58.318688
4388.000000	58.380329
4386.000000	58.441592
4384.000000	58.501720
4382.000000	58.562483
4380.000000	58.623212
4378.000000	58.684583
4376.000000	58.745819
4374.000000	58.807622
4372.000000	58.868723
4370.000000	58.927201
4368.000000	58.984832
4366.000000	59.045708
4364.000000	59.106833
4362.000000	59.169614
4360.000000	59.234593
4358.000000	59.297179
4356.000000	59.357317
4354.000000	59.421335
4352.000000	59.484876
4350.000000	59.545424
4348.000000	59.607122
4346.000000	59.671972
4344.000000	59.735300
4342.000000	59.797435
4340.000000	59.860278
4338.000000	59.925246
4336.000000	59.989344
4334.000000	60.052104
4332.000000	60.115060
4330.000000	60.180247
4328.000000	60.247016
4326.000000	60.315118
4324.000000	60.381737
4322.000000	60.446947
4320.000000	60.513664
4318.000000	60.581870
4316.000000	60.649046
4314.000000	60.718036
4312.000000	60.786672
4310.000000	60.852414
4308.000000	60.917953
4306.000000	60.984440
4304.000000	61.048085
4302.000000	61.112609
4300.000000	61.180838
4298.000000	61.248617
4296.000000	61.312567
4294.000000	61.376878
4292.000000	61.441995
