PE IR       SUBTECH     SPECTRUM    ASCII       PEDS        4.00        
   -1
TE109A_064_130K_SB.ASC
20/04/21
18:40:28.00
20/04/21
18:40:28.00
Administrator
TE109A, Tuesday, April 21 2020, 064.
1000.000000
#HDR
-1
-1
#GR
cm-1
EGY
1.0
0.0
6000.000000
-2.000000
2501
8
11.099231
1.163350
#DATA
6000.000000	1.934566
5998.000000	1.938654
5996.000000	1.943059
5994.000000	1.947271
5992.000000	1.950403
5990.000000	1.952710
5988.000000	1.955493
5986.000000	1.958860
5984.000000	1.962914
5982.000000	1.965814
5980.000000	1.969406
5978.000000	1.973560
5976.000000	1.978088
5974.000000	1.983256
5972.000000	1.988511
5970.000000	1.994210
5968.000000	1.999593
5966.000000	2.002805
5964.000000	2.005751
5962.000000	2.008453
5960.000000	2.011707
5958.000000	2.015698
5956.000000	2.018782
5954.000000	2.023518
5952.000000	2.028627
5950.000000	2.033409
5948.000000	2.037594
5946.000000	2.041631
5944.000000	2.046515
5942.000000	2.050639
5940.000000	2.053645
5938.000000	2.056321
5936.000000	2.060443
5934.000000	2.064401
5932.000000	2.068010
5930.000000	2.071640
5928.000000	2.075539
5926.000000	2.079240
5924.000000	2.082520
5922.000000	2.087521
5920.000000	2.093314
5918.000000	2.097335
5916.000000	2.099967
5914.000000	2.103816
5912.000000	2.110595
5910.000000	2.118115
5908.000000	2.122303
5906.000000	2.124026
5904.000000	2.126005
5902.000000	2.129481
5900.000000	2.135319
5898.000000	2.139951
5896.000000	2.144426
5894.000000	2.148591
5892.000000	2.152956
5890.000000	2.157778
5888.000000	2.162129
5886.000000	2.165761
5884.000000	2.169647
5882.000000	2.172870
5880.000000	2.176704
5878.000000	2.181586
5876.000000	2.185902
5874.000000	2.189705
5872.000000	2.193058
5870.000000	2.197155
5868.000000	2.202485
5866.000000	2.206780
5864.000000	2.211898
5862.000000	2.217231
5860.000000	2.220657
5858.000000	2.223457
5856.000000	2.226604
5854.000000	2.231055
5852.000000	2.236183
5850.000000	2.239581
5848.000000	2.244005
5846.000000	2.250492
5844.000000	2.258024
5842.000000	2.263964
5840.000000	2.267739
5838.000000	2.271222
5836.000000	2.276052
5834.000000	2.280777
5832.000000	2.284831
5830.000000	2.289261
5828.000000	2.294437
5826.000000	2.299247
5824.000000	2.303731
5822.000000	2.309932
5820.000000	2.315759
5818.000000	2.321013
5816.000000	2.325517
5814.000000	2.328890
5812.000000	2.332461
5810.000000	2.335636
5808.000000	2.339245
5806.000000	2.344144
5804.000000	2.348502
5802.000000	2.354330
5800.000000	2.360634
5798.000000	2.367233
5796.000000	2.372742
5794.000000	2.376403
5792.000000	2.379524
5790.000000	2.382895
5788.000000	2.387497
5786.000000	2.392768
5784.000000	2.398061
5782.000000	2.403402
5780.000000	2.408153
5778.000000	2.411865
5776.000000	2.416958
5774.000000	2.423446
5772.000000	2.429932
5770.000000	2.436171
5768.000000	2.440680
5766.000000	2.444497
5764.000000	2.447487
5762.000000	2.451306
5760.000000	2.458161
5758.000000	2.464695
5756.000000	2.468931
5754.000000	2.471550
5752.000000	2.474949
5750.000000	2.479142
5748.000000	2.484844
5746.000000	2.490608
5744.000000	2.497045
5742.000000	2.503748
5740.000000	2.508188
5738.000000	2.512049
5736.000000	2.514292
5734.000000	2.518021
5732.000000	2.523160
5730.000000	2.528898
5728.000000	2.536070
5726.000000	2.542512
5724.000000	2.546493
5722.000000	2.548450
5720.000000	2.552585
5718.000000	2.559123
5716.000000	2.563983
5714.000000	2.567097
5712.000000	2.570316
5710.000000	2.576478
5708.000000	2.582448
5706.000000	2.586927
5704.000000	2.592220
5702.000000	2.599130
5700.000000	2.606450
5698.000000	2.611502
5696.000000	2.615125
5694.000000	2.619240
5692.000000	2.624411
5690.000000	2.629993
5688.000000	2.634851
5686.000000	2.639735
5684.000000	2.644820
5682.000000	2.649550
5680.000000	2.654587
5678.000000	2.659554
5676.000000	2.665624
5674.000000	2.670959
5672.000000	2.676999
5670.000000	2.683391
5668.000000	2.690539
5666.000000	2.695563
5664.000000	2.699344
5662.000000	2.702983
5660.000000	2.706841
5658.000000	2.712300
5656.000000	2.719524
5654.000000	2.726366
5652.000000	2.731720
5650.000000	2.735180
5648.000000	2.739844
5646.000000	2.746116
5644.000000	2.751811
5642.000000	2.758366
5640.000000	2.763373
5638.000000	2.768428
5636.000000	2.772887
5634.000000	2.777151
5632.000000	2.783282
5630.000000	2.788685
5628.000000	2.794474
5626.000000	2.800724
5624.000000	2.805948
5622.000000	2.810672
5620.000000	2.815032
5618.000000	2.820746
5616.000000	2.825932
5614.000000	2.831143
5612.000000	2.836400
5610.000000	2.841724
5608.000000	2.845594
5606.000000	2.849748
5604.000000	2.855663
5602.000000	2.862119
5600.000000	2.868639
5598.000000	2.874085
5596.000000	2.878937
5594.000000	2.884389
5592.000000	2.889992
5590.000000	2.894611
5588.000000	2.898773
5586.000000	2.904556
5584.000000	2.910293
5582.000000	2.914157
5580.000000	2.919526
5578.000000	2.926378
5576.000000	2.933837
5574.000000	2.939499
5572.000000	2.945300
5570.000000	2.952153
5568.000000	2.957374
5566.000000	2.961408
5564.000000	2.966368
5562.000000	2.972306
5560.000000	2.977678
5558.000000	2.982016
5556.000000	2.987154
5554.000000	2.994516
5552.000000	3.000347
5550.000000	3.005254
5548.000000	3.011822
5546.000000	3.018934
5544.000000	3.025318
5542.000000	3.031496
5540.000000	3.037556
5538.000000	3.042567
5536.000000	3.044639
5534.000000	3.047967
5532.000000	3.054220
5530.000000	3.060852
5528.000000	3.066903
5526.000000	3.071649
5524.000000	3.077211
5522.000000	3.083802
5520.000000	3.090050
5518.000000	3.095664
5516.000000	3.100383
5514.000000	3.105873
5512.000000	3.113246
5510.000000	3.119612
5508.000000	3.123338
5506.000000	3.126174
5504.000000	3.131720
5502.000000	3.139211
5500.000000	3.145607
5498.000000	3.151540
5496.000000	3.156451
5494.000000	3.159880
5492.000000	3.163134
5490.000000	3.169047
5488.000000	3.177469
5486.000000	3.184685
5484.000000	3.189569
5482.000000	3.193916
5480.000000	3.199587
5478.000000	3.206476
5476.000000	3.211962
5474.000000	3.216662
5472.000000	3.221807
5470.000000	3.228639
5468.000000	3.235357
5466.000000	3.241801
5464.000000	3.247589
5462.000000	3.252649
5460.000000	3.258089
5458.000000	3.264446
5456.000000	3.271256
5454.000000	3.276877
5452.000000	3.281521
5450.000000	3.286408
5448.000000	3.292245
5446.000000	3.298186
5444.000000	3.303424
5442.000000	3.308156
5440.000000	3.314215
5438.000000	3.320865
5436.000000	3.326763
5434.000000	3.330937
5432.000000	3.335231
5430.000000	3.341631
5428.000000	3.348897
5426.000000	3.355418
5424.000000	3.360403
5422.000000	3.366632
5420.000000	3.373596
5418.000000	3.377741
5416.000000	3.378915
5414.000000	3.382725
5412.000000	3.389725
5410.000000	3.398398
5408.000000	3.406559
5406.000000	3.413924
5404.000000	3.421195
5402.000000	3.426569
5400.000000	3.431841
5398.000000	3.436378
5396.000000	3.440100
5394.000000	3.444879
5392.000000	3.451047
5390.000000	3.458009
5388.000000	3.464202
5386.000000	3.469692
5384.000000	3.475646
5382.000000	3.481179
5380.000000	3.485745
5378.000000	3.491326
5376.000000	3.498270
5374.000000	3.505039
5372.000000	3.511229
5370.000000	3.517123
5368.000000	3.523563
5366.000000	3.530037
5364.000000	3.536336
5362.000000	3.543147
5360.000000	3.549472
5358.000000	3.553524
5356.000000	3.556109
5354.000000	3.560735
5352.000000	3.568674
5350.000000	3.575805
5348.000000	3.580160
5346.000000	3.585155
5344.000000	3.591906
5342.000000	3.597722
5340.000000	3.602553
5338.000000	3.608153
5336.000000	3.614168
5334.000000	3.619669
5332.000000	3.625598
5330.000000	3.632645
5328.000000	3.638862
5326.000000	3.645283
5324.000000	3.652504
5322.000000	3.659104
5320.000000	3.664253
5318.000000	3.670134
5316.000000	3.675880
5314.000000	3.679713
5312.000000	3.683288
5310.000000	3.689486
5308.000000	3.696815
5306.000000	3.703371
5304.000000	3.708843
5302.000000	3.713660
5300.000000	3.718767
5298.000000	3.723895
5296.000000	3.729086
5294.000000	3.733558
5292.000000	3.737452
5290.000000	3.743635
5288.000000	3.750996
5286.000000	3.758596
5284.000000	3.764077
5282.000000	3.770226
5280.000000	3.778035
5278.000000	3.784766
5276.000000	3.790123
5274.000000	3.794844
5272.000000	3.798727
5270.000000	3.802556
5268.000000	3.808010
5266.000000	3.815207
5264.000000	3.820521
5262.000000	3.826006
5260.000000	3.833284
5258.000000	3.839570
5256.000000	3.843523
5254.000000	3.847087
5252.000000	3.852170
5250.000000	3.857201
5248.000000	3.862948
5246.000000	3.868848
5244.000000	3.874087
5242.000000	3.879896
5240.000000	3.886699
5238.000000	3.893092
5236.000000	3.897640
5234.000000	3.901396
5232.000000	3.904737
5230.000000	3.908712
5228.000000	3.913758
5226.000000	3.920961
5224.000000	3.928637
5222.000000	3.934145
5220.000000	3.937942
5218.000000	3.942756
5216.000000	3.948906
5214.000000	3.953725
5212.000000	3.956496
5210.000000	3.959633
5208.000000	3.963115
5206.000000	3.968684
5204.000000	3.975585
5202.000000	3.983110
5200.000000	3.988793
5198.000000	3.992642
5196.000000	3.996258
5194.000000	4.001707
5192.000000	4.007430
5190.000000	4.011842
5188.000000	4.016326
5186.000000	4.022654
5184.000000	4.028565
5182.000000	4.032866
5180.000000	4.038162
5178.000000	4.044234
5176.000000	4.049532
5174.000000	4.054705
5172.000000	4.060935
5170.000000	4.065590
5168.000000	4.068161
5166.000000	4.072528
5164.000000	4.079354
5162.000000	4.085552
5160.000000	4.090829
5158.000000	4.096727
5156.000000	4.101971
5154.000000	4.105411
5152.000000	4.109318
5150.000000	4.114945
5148.000000	4.121039
5146.000000	4.125987
5144.000000	4.130835
5142.000000	4.136071
5140.000000	4.141443
5138.000000	4.145914
5136.000000	4.150156
5134.000000	4.156284
5132.000000	4.162221
5130.000000	4.165826
5128.000000	4.169406
5126.000000	4.175462
5124.000000	4.182240
5122.000000	4.186956
5120.000000	4.190766
5118.000000	4.195273
5116.000000	4.201337
5114.000000	4.207076
5112.000000	4.212147
5110.000000	4.217426
5108.000000	4.223902
5106.000000	4.231342
5104.000000	4.238071
5102.000000	4.243071
5100.000000	4.246261
5098.000000	4.251889
5096.000000	4.258821
5094.000000	4.264911
5092.000000	4.269483
5090.000000	4.274935
5088.000000	4.280910
5086.000000	4.286280
5084.000000	4.291475
5082.000000	4.296676
5080.000000	4.303119
5078.000000	4.310591
5076.000000	4.317808
5074.000000	4.324198
5072.000000	4.329154
5070.000000	4.333267
5068.000000	4.338402
5066.000000	4.345367
5064.000000	4.352886
5062.000000	4.359395
5060.000000	4.366432
5058.000000	4.373307
5056.000000	4.379651
5054.000000	4.384194
5052.000000	4.389016
5050.000000	4.395527
5048.000000	4.403884
5046.000000	4.410430
5044.000000	4.415292
5042.000000	4.420562
5040.000000	4.425360
5038.000000	4.429770
5036.000000	4.435380
5034.000000	4.442084
5032.000000	4.447809
5030.000000	4.453553
5028.000000	4.460083
5026.000000	4.465740
5024.000000	4.471001
5022.000000	4.477757
5020.000000	4.485838
5018.000000	4.493030
5016.000000	4.498623
5014.000000	4.503656
5012.000000	4.509676
5010.000000	4.517619
5008.000000	4.526374
5006.000000	4.533601
5004.000000	4.539059
5002.000000	4.544985
5000.000000	4.551850
4998.000000	4.558703
4996.000000	4.564676
4994.000000	4.570492
4992.000000	4.576770
4990.000000	4.582789
4988.000000	4.587423
4986.000000	4.591845
4984.000000	4.598819
4982.000000	4.608410
4980.000000	4.618060
4978.000000	4.626177
4976.000000	4.632235
4974.000000	4.637389
4972.000000	4.643548
4970.000000	4.650576
4968.000000	4.657354
4966.000000	4.663513
4964.000000	4.670606
4962.000000	4.678461
4960.000000	4.685772
4958.000000	4.691812
4956.000000	4.697903
4954.000000	4.705757
4952.000000	4.714644
4950.000000	4.722056
4948.000000	4.726684
4946.000000	4.730231
4944.000000	4.734739
4942.000000	4.741192
4940.000000	4.748933
4938.000000	4.756410
4936.000000	4.763551
4934.000000	4.770587
4932.000000	4.776955
4930.000000	4.783179
4928.000000	4.790137
4926.000000	4.796719
4924.000000	4.802682
4922.000000	4.808836
4920.000000	4.815593
4918.000000	4.822879
4916.000000	4.830468
4914.000000	4.837600
4912.000000	4.845186
4910.000000	4.852768
4908.000000	4.859424
4906.000000	4.865216
4904.000000	4.871670
4902.000000	4.881054
4900.000000	4.890954
4898.000000	4.897918
4896.000000	4.902711
4894.000000	4.909116
4892.000000	4.916802
4890.000000	4.924944
4888.000000	4.932726
4886.000000	4.940093
4884.000000	4.948196
4882.000000	4.956479
4880.000000	4.963081
4878.000000	4.969460
4876.000000	4.977130
4874.000000	4.984337
4872.000000	4.990966
4870.000000	4.998206
4868.000000	5.006278
4866.000000	5.015249
4864.000000	5.024789
4862.000000	5.032667
4860.000000	5.039280
4858.000000	5.046324
4856.000000	5.053955
4854.000000	5.060957
4852.000000	5.067919
4850.000000	5.075471
4848.000000	5.083371
4846.000000	5.091037
4844.000000	5.097475
4842.000000	5.103603
4840.000000	5.109924
4838.000000	5.117114
4836.000000	5.124369
4834.000000	5.131230
4832.000000	5.138122
4830.000000	5.147067
4828.000000	5.156563
4826.000000	5.164242
4824.000000	5.171001
4822.000000	5.178222
4820.000000	5.186017
4818.000000	5.194037
4816.000000	5.201763
4814.000000	5.209042
4812.000000	5.217216
4810.000000	5.226422
4808.000000	5.235658
4806.000000	5.245480
4804.000000	5.253877
4802.000000	5.259882
4800.000000	5.265872
4798.000000	5.273869
4796.000000	5.283470
4794.000000	5.293101
4792.000000	5.302564
4790.000000	5.310724
4788.000000	5.316829
4786.000000	5.323415
4784.000000	5.332764
4782.000000	5.342214
4780.000000	5.349465
4778.000000	5.357613
4776.000000	5.366698
4774.000000	5.375526
4772.000000	5.384351
4770.000000	5.393380
4768.000000	5.401367
4766.000000	5.409409
4764.000000	5.417274
4762.000000	5.424939
4760.000000	5.432848
4758.000000	5.441011
4756.000000	5.449172
4754.000000	5.457400
4752.000000	5.465078
4750.000000	5.471529
4748.000000	5.478053
4746.000000	5.486596
4744.000000	5.496005
4742.000000	5.504697
4740.000000	5.513034
4738.000000	5.522150
4736.000000	5.529868
4734.000000	5.537130
4732.000000	5.545439
4730.000000	5.553100
4728.000000	5.559778
4726.000000	5.567410
4724.000000	5.575918
4722.000000	5.583972
4720.000000	5.591448
4718.000000	5.599070
4716.000000	5.607463
4714.000000	5.616559
4712.000000	5.625139
4710.000000	5.633161
4708.000000	5.640879
4706.000000	5.648840
4704.000000	5.658263
4702.000000	5.667803
4700.000000	5.675709
4698.000000	5.682860
4696.000000	5.691445
4694.000000	5.700898
4692.000000	5.709967
4690.000000	5.718350
4688.000000	5.725774
4686.000000	5.734556
4684.000000	5.744230
4682.000000	5.752696
4680.000000	5.759226
4678.000000	5.766698
4676.000000	5.774467
4674.000000	5.782468
4672.000000	5.790452
4670.000000	5.798444
4668.000000	5.806740
4666.000000	5.815251
4664.000000	5.823329
4662.000000	5.831084
4660.000000	5.838936
4658.000000	5.846443
4656.000000	5.853249
4654.000000	5.860136
4652.000000	5.868139
4650.000000	5.877019
4648.000000	5.885850
4646.000000	5.893751
4644.000000	5.900439
4642.000000	5.907819
4640.000000	5.916472
4638.000000	5.924305
4636.000000	5.931739
4634.000000	5.940089
4632.000000	5.948133
4630.000000	5.955590
4628.000000	5.962935
4626.000000	5.970016
4624.000000	5.977386
4622.000000	5.985996
4620.000000	5.995106
4618.000000	6.003498
4616.000000	6.010794
4614.000000	6.017922
4612.000000	6.026036
4610.000000	6.034015
4608.000000	6.041005
4606.000000	6.048687
4604.000000	6.057816
4602.000000	6.066447
4600.000000	6.074635
4598.000000	6.083620
4596.000000	6.092873
4594.000000	6.100670
4592.000000	6.108122
4590.000000	6.115784
4588.000000	6.123822
4586.000000	6.131848
4584.000000	6.139431
4582.000000	6.147112
4580.000000	6.155949
4578.000000	6.164826
4576.000000	6.172543
4574.000000	6.181005
4572.000000	6.191032
4570.000000	6.199485
4568.000000	6.204883
4566.000000	6.209701
4564.000000	6.216764
4562.000000	6.226634
4560.000000	6.237549
4558.000000	6.245734
4556.000000	6.251958
4554.000000	6.259428
4552.000000	6.267533
4550.000000	6.274345
4548.000000	6.280804
4546.000000	6.288613
4544.000000	6.297092
4542.000000	6.305041
4540.000000	6.313258
4538.000000	6.321180
4536.000000	6.327623
4534.000000	6.334494
4532.000000	6.343129
4530.000000	6.352147
4528.000000	6.360883
4526.000000	6.369335
4524.000000	6.376856
4522.000000	6.382843
4520.000000	6.388761
4518.000000	6.396318
4516.000000	6.404636
4514.000000	6.411947
4512.000000	6.420412
4510.000000	6.430020
4508.000000	6.438011
4506.000000	6.444820
4504.000000	6.453098
4502.000000	6.462103
4500.000000	6.470819
4498.000000	6.479552
4496.000000	6.487365
4494.000000	6.495026
4492.000000	6.503119
4490.000000	6.510967
4488.000000	6.518951
4486.000000	6.527523
4484.000000	6.534809
4482.000000	6.541741
4480.000000	6.550378
4478.000000	6.559334
4476.000000	6.567564
4474.000000	6.575433
4472.000000	6.582576
4470.000000	6.589780
4468.000000	6.597938
4466.000000	6.605705
4464.000000	6.612499
4462.000000	6.619633
4460.000000	6.627529
4458.000000	6.635410
4456.000000	6.642032
4454.000000	6.648581
4452.000000	6.655510
4450.000000	6.662322
4448.000000	6.670687
4446.000000	6.679580
4444.000000	6.686655
4442.000000	6.693678
4440.000000	6.701585
4438.000000	6.708532
4436.000000	6.715821
4434.000000	6.724340
4432.000000	6.732143
4430.000000	6.737789
4428.000000	6.743872
4426.000000	6.751497
4424.000000	6.758470
4422.000000	6.766087
4420.000000	6.775755
4418.000000	6.785332
4416.000000	6.793222
4414.000000	6.800571
4412.000000	6.807378
4410.000000	6.814595
4408.000000	6.822653
4406.000000	6.830424
4404.000000	6.837450
4402.000000	6.845285
4400.000000	6.853945
4398.000000	6.862937
4396.000000	6.871916
4394.000000	6.879838
4392.000000	6.886592
4390.000000	6.892336
4388.000000	6.898653
4386.000000	6.906529
4384.000000	6.913969
4382.000000	6.919419
4380.000000	6.925269
4378.000000	6.932524
4376.000000	6.939340
4374.000000	6.946436
4372.000000	6.954803
4370.000000	6.961326
4368.000000	6.965978
4366.000000	6.972422
4364.000000	6.980217
4362.000000	6.987369
4360.000000	6.994766
4358.000000	7.001880
4356.000000	7.007650
4354.000000	7.013772
4352.000000	7.021611
4350.000000	7.029066
4348.000000	7.035730
4346.000000	7.043769
4344.000000	7.051779
4342.000000	7.057725
4340.000000	7.063603
4338.000000	7.070759
4336.000000	7.077733
4334.000000	7.083944
4332.000000	7.090682
4330.000000	7.098928
4328.000000	7.107595
4326.000000	7.115556
4324.000000	7.122472
4322.000000	7.128474
4320.000000	7.134753
4318.000000	7.142078
4316.000000	7.150415
4314.000000	7.159392
4312.000000	7.167249
4310.000000	7.173642
4308.000000	7.180924
4306.000000	7.189852
4304.000000	7.198269
4302.000000	7.205290
4300.000000	7.211728
4298.000000	7.218706
4296.000000	7.225269
4294.000000	7.231695
4292.000000	7.240187
4290.000000	7.249418
4288.000000	7.257006
4286.000000	7.263960
4284.000000	7.270246
4282.000000	7.275804
4280.000000	7.282041
4278.000000	7.289480
4276.000000	7.297296
4274.000000	7.304150
4272.000000	7.309289
4270.000000	7.314063
4268.000000	7.319976
4266.000000	7.327781
4264.000000	7.335905
4262.000000	7.343473
4260.000000	7.350303
4258.000000	7.356304
4256.000000	7.361353
4254.000000	7.366871
4252.000000	7.374298
4250.000000	7.383442
4248.000000	7.391841
4246.000000	7.399348
4244.000000	7.406811
4242.000000	7.414009
4240.000000	7.420514
4238.000000	7.427259
4236.000000	7.434804
4234.000000	7.442263
4232.000000	7.449309
4230.000000	7.457373
4228.000000	7.465639
4226.000000	7.472918
4224.000000	7.479848
4222.000000	7.487604
4220.000000	7.494894
4218.000000	7.501482
4216.000000	7.509543
4214.000000	7.518420
