PE IR       SUBTECH     SPECTRUM    ASCII       PEDS        4.00        
   -1
TE109A_027_100K_BG.ASC
20/04/21
13:21:47.00
20/04/21
13:21:47.00
Administrator
TE109A, Tuesday, April 21 2020, 027.
1000.000000
#HDR
-1
-1
#GR
cm-1
EGY
1.0
0.0
6000.000000
-2.000000
2501
8
104.196342
10.939554
#DATA
6000.000000	15.627689
5998.000000	15.659641
5996.000000	15.691302
5994.000000	15.720870
5992.000000	15.750683
5990.000000	15.781159
5988.000000	15.811638
5986.000000	15.842051
5984.000000	15.872660
5982.000000	15.904403
5980.000000	15.935056
5978.000000	15.966706
5976.000000	15.998749
5974.000000	16.032237
5972.000000	16.065459
5970.000000	16.096809
5968.000000	16.128002
5966.000000	16.159272
5964.000000	16.191063
5962.000000	16.223930
5960.000000	16.254951
5958.000000	16.285412
5956.000000	16.316155
5954.000000	16.347141
5952.000000	16.379883
5950.000000	16.413121
5948.000000	16.445494
5946.000000	16.477116
5944.000000	16.506148
5942.000000	16.536673
5940.000000	16.567938
5938.000000	16.598994
5936.000000	16.630285
5934.000000	16.661837
5932.000000	16.694905
5930.000000	16.727885
5928.000000	16.758499
5926.000000	16.791372
5924.000000	16.824245
5922.000000	16.857846
5920.000000	16.890723
5918.000000	16.923814
5916.000000	16.956616
5914.000000	16.989064
5912.000000	17.021181
5910.000000	17.056366
5908.000000	17.092005
5906.000000	17.128508
5904.000000	17.162380
5902.000000	17.195624
5900.000000	17.229990
5898.000000	17.264108
5896.000000	17.298779
5894.000000	17.331393
5892.000000	17.363899
5890.000000	17.397384
5888.000000	17.430849
5886.000000	17.464860
5884.000000	17.498219
5882.000000	17.531661
5880.000000	17.565008
5878.000000	17.598086
5876.000000	17.630293
5874.000000	17.663577
5872.000000	17.698457
5870.000000	17.733997
5868.000000	17.768430
5866.000000	17.802517
5864.000000	17.838149
5862.000000	17.874912
5860.000000	17.909756
5858.000000	17.944332
5856.000000	17.978357
5854.000000	18.015185
5852.000000	18.051121
5850.000000	18.086284
5848.000000	18.121831
5846.000000	18.158331
5844.000000	18.196175
5842.000000	18.233395
5840.000000	18.271842
5838.000000	18.312532
5836.000000	18.351655
5834.000000	18.389625
5832.000000	18.426437
5830.000000	18.464707
5828.000000	18.505174
5826.000000	18.545669
5824.000000	18.584834
5822.000000	18.622204
5820.000000	18.660363
5818.000000	18.700124
5816.000000	18.739581
5814.000000	18.777401
5812.000000	18.813948
5810.000000	18.851007
5808.000000	18.887382
5806.000000	18.923801
5804.000000	18.960610
5802.000000	18.998273
5800.000000	19.037140
5798.000000	19.076130
5796.000000	19.114516
5794.000000	19.152658
5792.000000	19.190781
5790.000000	19.229490
5788.000000	19.266987
5786.000000	19.305687
5784.000000	19.345412
5782.000000	19.386606
5780.000000	19.427900
5778.000000	19.467146
5776.000000	19.504228
5774.000000	19.540723
5772.000000	19.579127
5770.000000	19.619902
5768.000000	19.659182
5766.000000	19.696882
5764.000000	19.734242
5762.000000	19.773426
5760.000000	19.811620
5758.000000	19.849506
5756.000000	19.887871
5754.000000	19.928805
5752.000000	19.970605
5750.000000	20.010246
5748.000000	20.048041
5746.000000	20.086882
5744.000000	20.125109
5742.000000	20.163093
5740.000000	20.200094
5738.000000	20.238542
5736.000000	20.277221
5734.000000	20.314753
5732.000000	20.350438
5730.000000	20.386553
5728.000000	20.423294
5726.000000	20.462600
5724.000000	20.502885
5722.000000	20.544007
5720.000000	20.584005
5718.000000	20.625148
5716.000000	20.664830
5714.000000	20.705149
5712.000000	20.745726
5710.000000	20.787409
5708.000000	20.828916
5706.000000	20.869343
5704.000000	20.908392
5702.000000	20.948024
5700.000000	20.989151
5698.000000	21.032907
5696.000000	21.076176
5694.000000	21.117754
5692.000000	21.158950
5690.000000	21.201910
5688.000000	21.244832
5686.000000	21.287162
5684.000000	21.328959
5682.000000	21.371722
5680.000000	21.415493
5678.000000	21.457790
5676.000000	21.498656
5674.000000	21.540214
5672.000000	21.584573
5670.000000	21.629506
5668.000000	21.671330
5666.000000	21.711937
5664.000000	21.752199
5662.000000	21.794315
5660.000000	21.836918
5658.000000	21.879242
5656.000000	21.922017
5654.000000	21.965070
5652.000000	22.008058
5650.000000	22.052865
5648.000000	22.096368
5646.000000	22.140227
5644.000000	22.182222
5642.000000	22.223950
5640.000000	22.266248
5638.000000	22.309232
5636.000000	22.351483
5634.000000	22.393616
5632.000000	22.436357
5630.000000	22.479708
5628.000000	22.522271
5626.000000	22.564388
5624.000000	22.606236
5622.000000	22.648425
5620.000000	22.691535
5618.000000	22.734084
5616.000000	22.776362
5614.000000	22.817895
5612.000000	22.860073
5610.000000	22.904950
5608.000000	22.948561
5606.000000	22.991655
5604.000000	23.033744
5602.000000	23.075428
5600.000000	23.117205
5598.000000	23.158925
5596.000000	23.202188
5594.000000	23.246336
5592.000000	23.290436
5590.000000	23.334386
5588.000000	23.377330
5586.000000	23.421309
5584.000000	23.466179
5582.000000	23.512557
5580.000000	23.557453
5578.000000	23.600457
5576.000000	23.643905
5574.000000	23.689011
5572.000000	23.734615
5570.000000	23.780608
5568.000000	23.825074
5566.000000	23.869783
5564.000000	23.913139
5562.000000	23.958347
5560.000000	24.003343
5558.000000	24.048731
5556.000000	24.092356
5554.000000	24.136294
5552.000000	24.179952
5550.000000	24.224893
5548.000000	24.269917
5546.000000	24.315027
5544.000000	24.359272
5542.000000	24.404038
5540.000000	24.448103
5538.000000	24.492757
5536.000000	24.537383
5534.000000	24.582974
5532.000000	24.627476
5530.000000	24.672855
5528.000000	24.718238
5526.000000	24.763205
5524.000000	24.805728
5522.000000	24.849030
5520.000000	24.893565
5518.000000	24.938934
5516.000000	24.984173
5514.000000	25.029423
5512.000000	25.072575
5510.000000	25.114478
5508.000000	25.156345
5506.000000	25.202601
5504.000000	25.251339
5502.000000	25.298411
5500.000000	25.343345
5498.000000	25.386696
5496.000000	25.427766
5494.000000	25.467778
5492.000000	25.508057
5490.000000	25.555162
5488.000000	25.606701
5486.000000	25.661786
5484.000000	25.714452
5482.000000	25.762032
5480.000000	25.801573
5478.000000	25.836055
5476.000000	25.876668
5474.000000	25.926570
5472.000000	25.981533
5470.000000	26.031381
5468.000000	26.075856
5466.000000	26.118577
5464.000000	26.159649
5462.000000	26.204525
5460.000000	26.253938
5458.000000	26.307801
5456.000000	26.360318
5454.000000	26.407915
5452.000000	26.449029
5450.000000	26.484901
5448.000000	26.520802
5446.000000	26.564344
5444.000000	26.611518
5442.000000	26.663339
5440.000000	26.712693
5438.000000	26.757759
5436.000000	26.800652
5434.000000	26.843961
5432.000000	26.887107
5430.000000	26.932257
5428.000000	26.984010
5426.000000	27.043138
5424.000000	27.099379
5422.000000	27.150559
5420.000000	27.197945
5418.000000	27.234011
5416.000000	27.258891
5414.000000	27.287769
5412.000000	27.332865
5410.000000	27.394449
5408.000000	27.457089
5406.000000	27.515038
5404.000000	27.566841
5402.000000	27.615024
5400.000000	27.658115
5398.000000	27.692990
5396.000000	27.725579
5394.000000	27.770902
5392.000000	27.827880
5390.000000	27.885439
5388.000000	27.931016
5386.000000	27.976917
5384.000000	28.029535
5382.000000	28.082914
5380.000000	28.122761
5378.000000	28.158457
5376.000000	28.203731
5374.000000	28.263475
5372.000000	28.324818
5370.000000	28.379657
5368.000000	28.428709
5366.000000	28.474738
5364.000000	28.522043
5362.000000	28.571255
5360.000000	28.621156
5358.000000	28.663373
5356.000000	28.696533
5354.000000	28.733802
5352.000000	28.783364
5350.000000	28.836673
5348.000000	28.875835
5346.000000	28.910958
5344.000000	28.957981
5342.000000	29.009158
5340.000000	29.055108
5338.000000	29.102731
5336.000000	29.161124
5334.000000	29.222030
5332.000000	29.273128
5330.000000	29.317538
5328.000000	29.363700
5326.000000	29.416809
5324.000000	29.474329
5322.000000	29.528866
5320.000000	29.576423
5318.000000	29.622664
5316.000000	29.670990
5314.000000	29.721907
5312.000000	29.768795
5310.000000	29.808529
5308.000000	29.850948
5306.000000	29.903256
5304.000000	29.958471
5302.000000	30.009045
5300.000000	30.055956
5298.000000	30.106574
5296.000000	30.156838
5294.000000	30.200233
5292.000000	30.240422
5290.000000	30.286144
5288.000000	30.338184
5286.000000	30.393672
5284.000000	30.446507
5282.000000	30.500596
5280.000000	30.553286
5278.000000	30.605993
5276.000000	30.657345
5274.000000	30.704919
5272.000000	30.748307
5270.000000	30.791356
5268.000000	30.832250
5266.000000	30.871043
5264.000000	30.914054
5262.000000	30.971972
5260.000000	31.035484
5258.000000	31.087977
5256.000000	31.131600
5254.000000	31.179107
5252.000000	31.228087
5250.000000	31.271979
5248.000000	31.314675
5246.000000	31.366385
5244.000000	31.426375
5242.000000	31.486516
5240.000000	31.543529
5238.000000	31.596006
5236.000000	31.643730
5234.000000	31.688890
5232.000000	31.736305
5230.000000	31.783539
5228.000000	31.824984
5226.000000	31.868361
5224.000000	31.921819
5222.000000	31.980526
5220.000000	32.033203
5218.000000	32.084288
5216.000000	32.137943
5214.000000	32.191187
5212.000000	32.234468
5210.000000	32.267482
5208.000000	32.302624
5206.000000	32.354687
5204.000000	32.420916
5202.000000	32.485787
5200.000000	32.538445
5198.000000	32.585817
5196.000000	32.636968
5194.000000	32.693565
5192.000000	32.748058
5190.000000	32.798484
5188.000000	32.845239
5186.000000	32.893431
5184.000000	32.944709
5182.000000	32.999436
5180.000000	33.054462
5178.000000	33.108801
5176.000000	33.162635
5174.000000	33.216400
5172.000000	33.269821
5170.000000	33.322593
5168.000000	33.372992
5166.000000	33.423136
5164.000000	33.474455
5162.000000	33.529262
5160.000000	33.582226
5158.000000	33.632220
5156.000000	33.680786
5154.000000	33.732787
5152.000000	33.788457
5150.000000	33.845785
5148.000000	33.899537
5146.000000	33.949946
5144.000000	34.000305
5142.000000	34.053337
5140.000000	34.105678
5138.000000	34.157835
5136.000000	34.209587
5134.000000	34.260841
5132.000000	34.312253
5130.000000	34.366036
5128.000000	34.418844
5126.000000	34.469959
5124.000000	34.520226
5122.000000	34.571749
5120.000000	34.622429
5118.000000	34.673660
5116.000000	34.726511
5114.000000	34.781177
5112.000000	34.833863
5110.000000	34.886319
5108.000000	34.939441
5106.000000	34.994272
5104.000000	35.045366
5102.000000	35.095829
5100.000000	35.148211
5098.000000	35.205162
5096.000000	35.261985
5094.000000	35.317821
5092.000000	35.371802
5090.000000	35.426246
5088.000000	35.479351
5086.000000	35.531342
5084.000000	35.584546
5082.000000	35.640069
5080.000000	35.694272
5078.000000	35.748280
5076.000000	35.804601
5074.000000	35.862218
5072.000000	35.916200
5070.000000	35.968223
5068.000000	36.020671
5066.000000	36.075464
5064.000000	36.131447
5062.000000	36.187295
5060.000000	36.241438
5058.000000	36.294742
5056.000000	36.347881
5054.000000	36.402152
5052.000000	36.455860
5050.000000	36.510571
5048.000000	36.564794
5046.000000	36.619909
5044.000000	36.673295
5042.000000	36.726465
5040.000000	36.779607
5038.000000	36.833362
5036.000000	36.887137
5034.000000	36.940699
5032.000000	36.993429
5030.000000	37.046986
5028.000000	37.101958
5026.000000	37.158602
5024.000000	37.213274
5022.000000	37.266038
5020.000000	37.317454
5018.000000	37.370716
5016.000000	37.426878
5014.000000	37.482961
5012.000000	37.536400
5010.000000	37.590294
5008.000000	37.646815
5006.000000	37.703693
5004.000000	37.758598
5002.000000	37.814019
5000.000000	37.870349
4998.000000	37.926650
4996.000000	37.981962
4994.000000	38.037542
4992.000000	38.092705
4990.000000	38.148737
4988.000000	38.204875
4986.000000	38.261858
4984.000000	38.318876
4982.000000	38.375971
4980.000000	38.432279
4978.000000	38.489432
4976.000000	38.545418
4974.000000	38.601307
4972.000000	38.656060
4970.000000	38.712584
4968.000000	38.768748
4966.000000	38.825420
4964.000000	38.880341
4962.000000	38.934729
4960.000000	38.989270
4958.000000	39.044906
4956.000000	39.101029
4954.000000	39.158191
4952.000000	39.213240
4950.000000	39.266889
4948.000000	39.320831
4946.000000	39.377508
4944.000000	39.433491
4942.000000	39.488164
4940.000000	39.542902
4938.000000	39.599310
4936.000000	39.654894
4934.000000	39.709751
4932.000000	39.763907
4930.000000	39.819233
4928.000000	39.874389
4926.000000	39.930179
4924.000000	39.985356
4922.000000	40.041305
4920.000000	40.095476
4918.000000	40.149879
4916.000000	40.205519
4914.000000	40.263225
4912.000000	40.319253
4910.000000	40.375611
4908.000000	40.433225
4906.000000	40.490668
4904.000000	40.545674
4902.000000	40.601907
4900.000000	40.659210
4898.000000	40.716789
4896.000000	40.772879
4894.000000	40.830515
4892.000000	40.890031
4890.000000	40.949292
4888.000000	41.006781
4886.000000	41.064491
4884.000000	41.122158
4882.000000	41.179667
4880.000000	41.236508
4878.000000	41.295296
4876.000000	41.352472
4874.000000	41.409516
4872.000000	41.466776
4870.000000	41.524650
4868.000000	41.581007
4866.000000	41.636660
4864.000000	41.692884
4862.000000	41.750073
4860.000000	41.806960
4858.000000	41.864087
4856.000000	41.921123
4854.000000	41.978566
4852.000000	42.033481
4850.000000	42.087975
4848.000000	42.144392
4846.000000	42.202050
4844.000000	42.258315
4842.000000	42.314277
4840.000000	42.370481
4838.000000	42.427285
4836.000000	42.483790
4834.000000	42.540663
4832.000000	42.596628
4830.000000	42.653197
4828.000000	42.708982
4826.000000	42.764654
4824.000000	42.820152
4822.000000	42.877910
4820.000000	42.935711
4818.000000	42.993039
4816.000000	43.048428
4814.000000	43.104666
4812.000000	43.161738
4810.000000	43.221354
4808.000000	43.281917
4806.000000	43.342755
4804.000000	43.400469
4802.000000	43.457765
4800.000000	43.515079
4798.000000	43.573260
4796.000000	43.630083
4794.000000	43.689185
4792.000000	43.749599
4790.000000	43.810334
4788.000000	43.868256
4786.000000	43.925907
4784.000000	43.984718
4782.000000	44.045354
4780.000000	44.104993
4778.000000	44.163923
4776.000000	44.220755
4774.000000	44.278004
4772.000000	44.336095
4770.000000	44.394820
4768.000000	44.452905
4766.000000	44.512247
4764.000000	44.571379
4762.000000	44.629611
4760.000000	44.687768
4758.000000	44.746713
4756.000000	44.803969
4754.000000	44.861903
4752.000000	44.919780
4750.000000	44.976479
4748.000000	45.031135
4746.000000	45.086128
4744.000000	45.140621
4742.000000	45.196580
4740.000000	45.254408
4738.000000	45.313679
4736.000000	45.372376
4734.000000	45.430507
4732.000000	45.486397
4730.000000	45.542059
4728.000000	45.598806
4726.000000	45.656064
4724.000000	45.712517
4722.000000	45.770286
4720.000000	45.830500
4718.000000	45.891985
4716.000000	45.952557
4714.000000	46.013531
4712.000000	46.075247
4710.000000	46.136788
4708.000000	46.196142
4706.000000	46.255662
4704.000000	46.317234
4702.000000	46.380157
4700.000000	46.441928
4698.000000	46.503863
4696.000000	46.565732
4694.000000	46.626576
4692.000000	46.685270
4690.000000	46.744068
4688.000000	46.803031
4686.000000	46.862989
4684.000000	46.923816
4682.000000	46.985604
4680.000000	47.045842
4678.000000	47.106024
4676.000000	47.166715
4674.000000	47.227522
4672.000000	47.287222
4670.000000	47.348401
4668.000000	47.410403
4666.000000	47.471717
4664.000000	47.531557
4662.000000	47.591749
4660.000000	47.650353
4658.000000	47.709603
4656.000000	47.769550
4654.000000	47.828858
4652.000000	47.886494
4650.000000	47.946087
4648.000000	48.005567
4646.000000	48.065616
4644.000000	48.126882
4642.000000	48.188724
4640.000000	48.248342
4638.000000	48.308143
4636.000000	48.367804
4634.000000	48.427823
4632.000000	48.487220
4630.000000	48.546852
4628.000000	48.605311
4626.000000	48.666006
4624.000000	48.726249
4622.000000	48.786182
4620.000000	48.846884
4618.000000	48.909472
4616.000000	48.970830
4614.000000	49.033451
4612.000000	49.096818
4610.000000	49.160327
4608.000000	49.223721
4606.000000	49.288950
4604.000000	49.353387
4602.000000	49.416366
4600.000000	49.478476
4598.000000	49.542535
4596.000000	49.607055
4594.000000	49.672530
4592.000000	49.737655
4590.000000	49.801285
4588.000000	49.863183
4586.000000	49.925953
4584.000000	49.989423
4582.000000	50.053272
4580.000000	50.116906
4578.000000	50.179191
4576.000000	50.239457
4574.000000	50.301816
4572.000000	50.365673
4570.000000	50.429166
4568.000000	50.489756
4566.000000	50.551098
4564.000000	50.614849
4562.000000	50.680143
4560.000000	50.742739
4558.000000	50.804468
4556.000000	50.865793
4554.000000	50.926591
4552.000000	50.987424
4550.000000	51.049555
4548.000000	51.111211
4546.000000	51.173454
4544.000000	51.236066
4542.000000	51.299570
4540.000000	51.361230
4538.000000	51.420275
4536.000000	51.477877
4534.000000	51.539309
4532.000000	51.603276
4530.000000	51.666701
4528.000000	51.729217
4526.000000	51.792314
4524.000000	51.854903
4522.000000	51.918406
4520.000000	51.982057
4518.000000	52.045560
4516.000000	52.107754
4514.000000	52.169714
4512.000000	52.233192
4510.000000	52.299924
4508.000000	52.365925
4506.000000	52.430583
4504.000000	52.493983
4502.000000	52.557300
4500.000000	52.620508
4498.000000	52.686555
4496.000000	52.753902
4494.000000	52.820106
4492.000000	52.883963
4490.000000	52.947616
4488.000000	53.010683
4486.000000	53.074545
4484.000000	53.138505
4482.000000	53.203402
4480.000000	53.268657
4478.000000	53.334005
4476.000000	53.396008
4474.000000	53.456021
4472.000000	53.516591
4470.000000	53.579680
4468.000000	53.641114
4466.000000	53.702578
4464.000000	53.764712
4462.000000	53.826310
4460.000000	53.887149
4458.000000	53.949509
4456.000000	54.010972
4454.000000	54.072965
4452.000000	54.135535
4450.000000	54.197660
4448.000000	54.258794
4446.000000	54.320491
4444.000000	54.381638
4442.000000	54.443094
4440.000000	54.502994
4438.000000	54.563267
4436.000000	54.624779
4434.000000	54.687969
4432.000000	54.750275
4430.000000	54.813261
4428.000000	54.876433
4426.000000	54.940398
4424.000000	55.003354
4422.000000	55.065285
4420.000000	55.125248
4418.000000	55.187970
4416.000000	55.253244
4414.000000	55.318641
4412.000000	55.381999
4410.000000	55.446276
4408.000000	55.510127
4406.000000	55.574574
4404.000000	55.639435
4402.000000	55.703829
4400.000000	55.765629
4398.000000	55.829004
4396.000000	55.892279
4394.000000	55.955238
4392.000000	56.018146
4390.000000	56.081062
4388.000000	56.142390
4386.000000	56.203785
4384.000000	56.264586
4382.000000	56.325010
4380.000000	56.384550
4378.000000	56.445507
4376.000000	56.506420
4374.000000	56.565222
4372.000000	56.623243
4370.000000	56.683437
4368.000000	56.744467
4366.000000	56.805011
4364.000000	56.864667
4362.000000	56.924223
4360.000000	56.983001
4358.000000	57.044060
4356.000000	57.106424
4354.000000	57.168596
4352.000000	57.231541
4350.000000	57.295569
4348.000000	57.357854
4346.000000	57.420512
4344.000000	57.481407
4342.000000	57.541817
4340.000000	57.603537
4338.000000	57.666583
4336.000000	57.730503
4334.000000	57.795858
4332.000000	57.859283
4330.000000	57.922928
4328.000000	57.988636
4326.000000	58.055354
4324.000000	58.120029
4322.000000	58.184360
4320.000000	58.249551
4318.000000	58.316991
4316.000000	58.385267
4314.000000	58.452144
4312.000000	58.515945
4310.000000	58.580753
4308.000000	58.647203
4306.000000	58.714646
4304.000000	58.781302
4302.000000	58.848123
4300.000000	58.913112
4298.000000	58.977846
4296.000000	59.043113
4294.000000	59.108233
4292.000000	59.171374
