PE IR       SUBTECH     SPECTRUM    ASCII       PEDS        4.00        
   -1
TE109A_077_150K_BG.ASC
20/04/21
20:57:03.00
20/04/21
20:57:03.00
Administrator
TE109A, Tuesday, April 21 2020, 077.
1000.000000
#HDR
-1
-1
#GR
cm-1
EGY
1.0
0.0
6000.000000
-2.000000
2501
8
105.325012
10.932539
#DATA
6000.000000	16.416136
5998.000000	16.447261
5996.000000	16.476659
5994.000000	16.508681
5992.000000	16.542513
5990.000000	16.576085
5988.000000	16.609201
5986.000000	16.640665
5984.000000	16.673849
5982.000000	16.709361
5980.000000	16.743090
5978.000000	16.775160
5976.000000	16.807530
5974.000000	16.841436
5972.000000	16.876516
5970.000000	16.911795
5968.000000	16.945791
5966.000000	16.979525
5964.000000	17.013076
5962.000000	17.046824
5960.000000	17.080037
5958.000000	17.113818
5956.000000	17.148014
5954.000000	17.183918
5952.000000	17.219718
5950.000000	17.252311
5948.000000	17.284603
5946.000000	17.318462
5944.000000	17.352101
5942.000000	17.385533
5940.000000	17.418009
5938.000000	17.451297
5936.000000	17.485529
5934.000000	17.518955
5932.000000	17.552320
5930.000000	17.586474
5928.000000	17.620183
5926.000000	17.655040
5924.000000	17.690592
5922.000000	17.726767
5920.000000	17.763500
5918.000000	17.799210
5916.000000	17.834355
5914.000000	17.869292
5912.000000	17.905688
5910.000000	17.943761
5908.000000	17.981549
5906.000000	18.018380
5904.000000	18.053681
5902.000000	18.088273
5900.000000	18.123571
5898.000000	18.160084
5896.000000	18.198012
5894.000000	18.236247
5892.000000	18.272605
5890.000000	18.308025
5888.000000	18.343653
5886.000000	18.379916
5884.000000	18.415351
5882.000000	18.450473
5880.000000	18.485958
5878.000000	18.521847
5876.000000	18.557688
5874.000000	18.593814
5872.000000	18.630595
5870.000000	18.667928
5868.000000	18.705609
5866.000000	18.743260
5864.000000	18.781259
5862.000000	18.818523
5860.000000	18.855710
5858.000000	18.892892
5856.000000	18.930113
5854.000000	18.968725
5852.000000	19.008156
5850.000000	19.047306
5848.000000	19.086103
5846.000000	19.124385
5844.000000	19.162594
5842.000000	19.202231
5840.000000	19.242847
5838.000000	19.284347
5836.000000	19.325755
5834.000000	19.367551
5832.000000	19.410415
5830.000000	19.453725
5828.000000	19.494464
5826.000000	19.533766
5824.000000	19.573363
5822.000000	19.614816
5820.000000	19.656873
5818.000000	19.697749
5816.000000	19.737367
5814.000000	19.778060
5812.000000	19.819071
5810.000000	19.859971
5808.000000	19.901296
5806.000000	19.942790
5804.000000	19.983662
5802.000000	20.025131
5800.000000	20.065355
5798.000000	20.106325
5796.000000	20.146411
5794.000000	20.188028
5792.000000	20.229803
5790.000000	20.269279
5788.000000	20.307938
5786.000000	20.348561
5784.000000	20.391645
5782.000000	20.434911
5780.000000	20.476601
5778.000000	20.518153
5776.000000	20.559252
5774.000000	20.600707
5772.000000	20.642279
5770.000000	20.684851
5768.000000	20.727766
5766.000000	20.770697
5764.000000	20.813170
5762.000000	20.856022
5760.000000	20.897877
5758.000000	20.939213
5756.000000	20.979928
5754.000000	21.021698
5752.000000	21.063641
5750.000000	21.103567
5748.000000	21.143615
5746.000000	21.185018
5744.000000	21.227075
5742.000000	21.268990
5740.000000	21.309501
5738.000000	21.349595
5736.000000	21.389039
5734.000000	21.429076
5732.000000	21.469986
5730.000000	21.510490
5728.000000	21.550241
5726.000000	21.589888
5724.000000	21.631315
5722.000000	21.673100
5720.000000	21.715357
5718.000000	21.757813
5716.000000	21.800694
5714.000000	21.845275
5712.000000	21.889006
5710.000000	21.933064
5708.000000	21.977021
5706.000000	22.021259
5704.000000	22.066833
5702.000000	22.111829
5700.000000	22.155750
5698.000000	22.198412
5696.000000	22.241640
5694.000000	22.287338
5692.000000	22.333220
5690.000000	22.378724
5688.000000	22.423741
5686.000000	22.469563
5684.000000	22.514831
5682.000000	22.559276
5680.000000	22.603728
5678.000000	22.648731
5676.000000	22.694509
5674.000000	22.741041
5672.000000	22.786683
5670.000000	22.832519
5668.000000	22.877702
5666.000000	22.922178
5664.000000	22.966032
5662.000000	23.010561
5660.000000	23.057457
5658.000000	23.105383
5656.000000	23.152330
5654.000000	23.198185
5652.000000	23.242942
5650.000000	23.288498
5648.000000	23.333573
5646.000000	23.378901
5644.000000	23.423718
5642.000000	23.468396
5640.000000	23.513774
5638.000000	23.559358
5636.000000	23.605742
5634.000000	23.651320
5632.000000	23.696930
5630.000000	23.742532
5628.000000	23.787720
5626.000000	23.832866
5624.000000	23.877236
5622.000000	23.922336
5620.000000	23.967311
5618.000000	24.012417
5616.000000	24.057515
5614.000000	24.103033
5612.000000	24.148628
5610.000000	24.194046
5608.000000	24.240052
5606.000000	24.287061
5604.000000	24.333237
5602.000000	24.378475
5600.000000	24.422665
5598.000000	24.468305
5596.000000	24.513876
5594.000000	24.559858
5592.000000	24.606202
5590.000000	24.653388
5588.000000	24.701275
5586.000000	24.749023
5584.000000	24.795877
5582.000000	24.840740
5580.000000	24.886752
5578.000000	24.936240
5576.000000	24.987287
5574.000000	25.036506
5572.000000	25.082216
5570.000000	25.128722
5568.000000	25.176160
5566.000000	25.223096
5564.000000	25.269725
5562.000000	25.317630
5560.000000	25.366141
5558.000000	25.414848
5556.000000	25.462139
5554.000000	25.510150
5552.000000	25.558274
5550.000000	25.605782
5548.000000	25.652497
5546.000000	25.700102
5544.000000	25.748151
5542.000000	25.795205
5540.000000	25.840361
5538.000000	25.885994
5536.000000	25.933142
5534.000000	25.982222
5532.000000	26.031677
5530.000000	26.080098
5528.000000	26.126751
5526.000000	26.173526
5524.000000	26.221156
5522.000000	26.268833
5520.000000	26.314573
5518.000000	26.359939
5516.000000	26.406607
5514.000000	26.456940
5512.000000	26.505638
5510.000000	26.551237
5508.000000	26.596730
5506.000000	26.645137
5504.000000	26.694106
5502.000000	26.741485
5500.000000	26.789185
5498.000000	26.837381
5496.000000	26.882649
5494.000000	26.926928
5492.000000	26.974178
5490.000000	27.026724
5488.000000	27.079855
5486.000000	27.130388
5484.000000	27.181148
5482.000000	27.233152
5480.000000	27.280489
5478.000000	27.321299
5476.000000	27.364443
5474.000000	27.415765
5472.000000	27.468973
5470.000000	27.518221
5468.000000	27.566328
5466.000000	27.616285
5464.000000	27.665375
5462.000000	27.713142
5460.000000	27.761997
5458.000000	27.815008
5456.000000	27.869328
5454.000000	27.919259
5452.000000	27.963544
5450.000000	28.005679
5448.000000	28.048966
5446.000000	28.094709
5444.000000	28.142805
5442.000000	28.196272
5440.000000	28.250137
5438.000000	28.299833
5436.000000	28.347224
5434.000000	28.395034
5432.000000	28.441172
5430.000000	28.487742
5428.000000	28.539999
5426.000000	28.597980
5424.000000	28.654076
5422.000000	28.705832
5420.000000	28.755127
5418.000000	28.797248
5416.000000	28.831700
5414.000000	28.869227
5412.000000	28.917362
5410.000000	28.976522
5408.000000	29.036153
5406.000000	29.092922
5404.000000	29.145544
5402.000000	29.196009
5400.000000	29.242594
5398.000000	29.284135
5396.000000	29.323915
5394.000000	29.373078
5392.000000	29.431235
5390.000000	29.488155
5388.000000	29.535661
5386.000000	29.582683
5384.000000	29.636473
5382.000000	29.690729
5380.000000	29.737211
5378.000000	29.781945
5376.000000	29.832562
5374.000000	29.891092
5372.000000	29.949293
5370.000000	30.002809
5368.000000	30.052312
5366.000000	30.101627
5364.000000	30.153168
5362.000000	30.206381
5360.000000	30.257571
5358.000000	30.303228
5356.000000	30.342528
5354.000000	30.386130
5352.000000	30.437344
5350.000000	30.490413
5348.000000	30.535322
5346.000000	30.578602
5344.000000	30.628979
5342.000000	30.680549
5340.000000	30.729639
5338.000000	30.780719
5336.000000	30.839223
5334.000000	30.899570
5332.000000	30.952207
5330.000000	30.998146
5328.000000	31.045984
5326.000000	31.102136
5324.000000	31.161894
5322.000000	31.216779
5320.000000	31.265560
5318.000000	31.314238
5316.000000	31.364531
5314.000000	31.416791
5312.000000	31.467252
5310.000000	31.512832
5308.000000	31.558021
5306.000000	31.608329
5304.000000	31.662534
5302.000000	31.716459
5300.000000	31.770523
5298.000000	31.825690
5296.000000	31.878074
5294.000000	31.924364
5292.000000	31.968402
5290.000000	32.017208
5288.000000	32.071233
5286.000000	32.127157
5284.000000	32.180741
5282.000000	32.234387
5280.000000	32.288093
5278.000000	32.341476
5276.000000	32.393538
5274.000000	32.445867
5272.000000	32.497695
5270.000000	32.547965
5268.000000	32.593036
5266.000000	32.635463
5264.000000	32.682073
5262.000000	32.739237
5260.000000	32.800459
5258.000000	32.856390
5256.000000	32.906780
5254.000000	32.957889
5252.000000	33.007822
5250.000000	33.053186
5248.000000	33.097999
5246.000000	33.150097
5244.000000	33.210372
5242.000000	33.271872
5240.000000	33.329501
5238.000000	33.381739
5236.000000	33.430461
5234.000000	33.479263
5232.000000	33.529464
5230.000000	33.579310
5228.000000	33.625636
5226.000000	33.673527
5224.000000	33.728343
5222.000000	33.787597
5220.000000	33.843817
5218.000000	33.896958
5216.000000	33.950833
5214.000000	34.004981
5212.000000	34.053353
5210.000000	34.093320
5208.000000	34.134777
5206.000000	34.189249
5204.000000	34.253429
5202.000000	34.315877
5200.000000	34.370383
5198.000000	34.421756
5196.000000	34.474528
5194.000000	34.531973
5192.000000	34.589099
5190.000000	34.642317
5188.000000	34.692102
5186.000000	34.744422
5184.000000	34.798887
5182.000000	34.854189
5180.000000	34.909708
5178.000000	34.966443
5176.000000	35.023212
5174.000000	35.078081
5172.000000	35.131373
5170.000000	35.184620
5168.000000	35.238332
5166.000000	35.291461
5164.000000	35.343005
5162.000000	35.396461
5160.000000	35.452555
5158.000000	35.508872
5156.000000	35.563248
5154.000000	35.617452
5152.000000	35.672259
5150.000000	35.727351
5148.000000	35.782463
5146.000000	35.836655
5144.000000	35.889248
5142.000000	35.942646
5140.000000	35.996786
5138.000000	36.050571
5136.000000	36.103699
5134.000000	36.157424
5132.000000	36.211865
5130.000000	36.267325
5128.000000	36.322289
5126.000000	36.375429
5124.000000	36.427714
5122.000000	36.480775
5120.000000	36.534186
5118.000000	36.588451
5116.000000	36.643831
5114.000000	36.699351
5112.000000	36.753459
5110.000000	36.808224
5108.000000	36.861926
5106.000000	36.916020
5104.000000	36.971242
5102.000000	37.027640
5100.000000	37.084410
5098.000000	37.141325
5096.000000	37.198520
5094.000000	37.254381
5092.000000	37.309670
5090.000000	37.365873
5088.000000	37.421645
5086.000000	37.478321
5084.000000	37.534941
5082.000000	37.591791
5080.000000	37.648086
5078.000000	37.703825
5076.000000	37.760028
5074.000000	37.817161
5072.000000	37.874528
5070.000000	37.931454
5068.000000	37.988065
5066.000000	38.045274
5064.000000	38.101588
5062.000000	38.157084
5060.000000	38.214074
5058.000000	38.272426
5056.000000	38.329845
5054.000000	38.383846
5052.000000	38.435780
5050.000000	38.489965
5048.000000	38.546278
5046.000000	38.603832
5044.000000	38.659954
5042.000000	38.716939
5040.000000	38.773735
5038.000000	38.829906
5036.000000	38.884369
5034.000000	38.939639
5032.000000	38.994886
5030.000000	39.050196
5028.000000	39.105706
5026.000000	39.161709
5024.000000	39.216857
5022.000000	39.271348
5020.000000	39.328037
5018.000000	39.387486
5016.000000	39.445843
5014.000000	39.501506
5012.000000	39.556500
5010.000000	39.613653
5008.000000	39.670585
5006.000000	39.727715
5004.000000	39.785522
5002.000000	39.842897
5000.000000	39.899500
4998.000000	39.956800
4996.000000	40.014473
4994.000000	40.072365
4992.000000	40.130309
4990.000000	40.188870
4988.000000	40.247318
4986.000000	40.306329
4984.000000	40.363560
4982.000000	40.419906
4980.000000	40.476815
4978.000000	40.534980
4976.000000	40.592861
4974.000000	40.650913
4972.000000	40.709377
4970.000000	40.767918
4968.000000	40.825467
4966.000000	40.882475
4964.000000	40.939169
4962.000000	40.996697
4960.000000	41.054620
4958.000000	41.112409
4956.000000	41.168213
4954.000000	41.224024
4952.000000	41.281988
4950.000000	41.341077
4948.000000	41.397997
4946.000000	41.454595
4944.000000	41.511733
4942.000000	41.568276
4940.000000	41.623777
4938.000000	41.679700
4936.000000	41.735700
4934.000000	41.792954
4932.000000	41.851384
4930.000000	41.908563
4928.000000	41.963792
4926.000000	42.018980
4924.000000	42.075896
4922.000000	42.133730
4920.000000	42.190737
4918.000000	42.246782
4916.000000	42.303431
4914.000000	42.362311
4912.000000	42.421095
4910.000000	42.478772
4908.000000	42.536634
4906.000000	42.596291
4904.000000	42.654912
4902.000000	42.711029
4900.000000	42.767686
4898.000000	42.827421
4896.000000	42.887291
4894.000000	42.947093
4892.000000	43.006796
4890.000000	43.068118
4888.000000	43.128920
4886.000000	43.189038
4884.000000	43.247615
4882.000000	43.305623
4880.000000	43.362905
4878.000000	43.420911
4876.000000	43.479706
4874.000000	43.538403
4872.000000	43.596491
4870.000000	43.655654
4868.000000	43.714911
4866.000000	43.773902
4864.000000	43.832513
4862.000000	43.890381
4860.000000	43.947066
4858.000000	44.004965
4856.000000	44.064285
4854.000000	44.124028
4852.000000	44.182297
4850.000000	44.239589
4848.000000	44.296003
4846.000000	44.353910
4844.000000	44.411950
4842.000000	44.468965
4840.000000	44.525479
4838.000000	44.583945
4836.000000	44.642358
4834.000000	44.699739
4832.000000	44.756176
4830.000000	44.813216
4828.000000	44.870129
4826.000000	44.927530
4824.000000	44.985511
4822.000000	45.044119
4820.000000	45.103772
4818.000000	45.163041
4816.000000	45.220928
4814.000000	45.279115
4812.000000	45.338678
4810.000000	45.398722
4808.000000	45.458212
4806.000000	45.517944
4804.000000	45.575963
4802.000000	45.635444
4800.000000	45.697665
4798.000000	45.760384
4796.000000	45.819855
4794.000000	45.878200
4792.000000	45.936549
4790.000000	45.996596
4788.000000	46.057443
4786.000000	46.117693
4784.000000	46.176231
4782.000000	46.236123
4780.000000	46.297544
4778.000000	46.359351
4776.000000	46.419457
4774.000000	46.478575
4772.000000	46.538077
4770.000000	46.599152
4768.000000	46.659648
4766.000000	46.717801
4764.000000	46.774407
4762.000000	46.833015
4760.000000	46.892108
4758.000000	46.950627
4756.000000	47.008518
4754.000000	47.067211
4752.000000	47.124685
4750.000000	47.183043
4748.000000	47.241965
4746.000000	47.301001
4744.000000	47.359000
4742.000000	47.417016
4740.000000	47.473824
4738.000000	47.530108
4736.000000	47.587530
4734.000000	47.648002
4732.000000	47.709866
4730.000000	47.769595
4728.000000	47.827015
4726.000000	47.885548
4724.000000	47.945314
4722.000000	48.004028
4720.000000	48.063155
4718.000000	48.124799
4716.000000	48.186922
4714.000000	48.248587
4712.000000	48.309093
4710.000000	48.369665
4708.000000	48.431093
4706.000000	48.494224
4704.000000	48.556768
4702.000000	48.619194
4700.000000	48.682047
4698.000000	48.744504
4696.000000	48.804524
4694.000000	48.864324
4692.000000	48.926831
4690.000000	48.992166
4688.000000	49.055729
4686.000000	49.117010
4684.000000	49.177306
4682.000000	49.237852
4680.000000	49.297814
4678.000000	49.358374
4676.000000	49.420614
4674.000000	49.484348
4672.000000	49.545238
4670.000000	49.604194
4668.000000	49.664530
4666.000000	49.726799
4664.000000	49.787656
4662.000000	49.848623
4660.000000	49.910139
4658.000000	49.971674
4656.000000	50.032027
4654.000000	50.091762
4652.000000	50.151936
4650.000000	50.213116
4648.000000	50.273424
4646.000000	50.333991
4644.000000	50.395506
4642.000000	50.456818
4640.000000	50.516062
4638.000000	50.576389
4636.000000	50.638628
4634.000000	50.701947
4632.000000	50.763120
4630.000000	50.822125
4628.000000	50.881443
4626.000000	50.942782
4624.000000	51.002809
4622.000000	51.062768
4620.000000	51.125001
4618.000000	51.188387
4616.000000	51.250995
4614.000000	51.314960
4612.000000	51.380770
4610.000000	51.446155
4608.000000	51.509731
4606.000000	51.573324
4604.000000	51.638639
4602.000000	51.705347
4600.000000	51.771170
4598.000000	51.835927
4596.000000	51.900716
4594.000000	51.965953
4592.000000	52.029424
4590.000000	52.091770
4588.000000	52.155183
4586.000000	52.219861
4584.000000	52.283750
4582.000000	52.347626
4580.000000	52.412285
4578.000000	52.476317
4576.000000	52.539600
4574.000000	52.602822
4572.000000	52.666386
4570.000000	52.730392
4568.000000	52.794100
4566.000000	52.856360
4564.000000	52.918961
4562.000000	52.983359
4560.000000	53.046949
4558.000000	53.108204
4556.000000	53.168915
4554.000000	53.232930
4552.000000	53.298787
4550.000000	53.362510
4548.000000	53.423288
4546.000000	53.485061
4544.000000	53.548177
4542.000000	53.609766
4540.000000	53.669601
4538.000000	53.731427
4536.000000	53.796343
4534.000000	53.861647
4532.000000	53.924798
4530.000000	53.986839
4528.000000	54.048360
4526.000000	54.111286
4524.000000	54.175406
4522.000000	54.240082
4520.000000	54.304413
4518.000000	54.368258
4516.000000	54.432028
4514.000000	54.498140
4512.000000	54.564128
4510.000000	54.627200
4508.000000	54.690268
4506.000000	54.756743
4504.000000	54.822889
4502.000000	54.887375
4500.000000	54.954180
4498.000000	55.022906
4496.000000	55.088682
4494.000000	55.152389
4492.000000	55.216371
4490.000000	55.280667
4488.000000	55.345227
4486.000000	55.410780
4484.000000	55.475744
4482.000000	55.539927
4480.000000	55.604044
4478.000000	55.668840
4476.000000	55.732829
4474.000000	55.796872
4472.000000	55.859958
4470.000000	55.922155
4468.000000	55.984019
4466.000000	56.046772
4464.000000	56.109462
4462.000000	56.171425
4460.000000	56.233044
4458.000000	56.296202
4456.000000	56.358764
4454.000000	56.420474
4452.000000	56.482420
4450.000000	56.544945
4448.000000	56.606506
4446.000000	56.666955
4444.000000	56.727893
4442.000000	56.791095
4440.000000	56.853028
4438.000000	56.914721
4436.000000	56.979362
4434.000000	57.043665
4432.000000	57.104925
4430.000000	57.167344
4428.000000	57.231748
4426.000000	57.296367
4424.000000	57.360580
4422.000000	57.423919
4420.000000	57.485352
4418.000000	57.547371
4416.000000	57.612219
4414.000000	57.678947
4412.000000	57.743744
4410.000000	57.806885
4408.000000	57.870620
4406.000000	57.935944
4404.000000	58.000932
4402.000000	58.065133
4400.000000	58.129274
4398.000000	58.194106
4396.000000	58.257839
4394.000000	58.320281
4392.000000	58.382642
4390.000000	58.446013
4388.000000	58.509066
4386.000000	58.571517
4384.000000	58.633457
4382.000000	58.694467
4380.000000	58.754926
4378.000000	58.816087
4376.000000	58.876846
4374.000000	58.936886
4372.000000	58.996320
4370.000000	59.055046
4368.000000	59.113778
4366.000000	59.173627
4364.000000	59.233820
4362.000000	59.295126
4360.000000	59.358145
4358.000000	59.421682
4356.000000	59.483529
4354.000000	59.544932
4352.000000	59.607115
4350.000000	59.670648
4348.000000	59.734865
4346.000000	59.799641
4344.000000	59.862944
4342.000000	59.924849
4340.000000	59.986751
4338.000000	60.050383
4336.000000	60.114508
4334.000000	60.177094
4332.000000	60.238364
4330.000000	60.301769
4328.000000	60.367308
4326.000000	60.434582
4324.000000	60.501734
4322.000000	60.568279
4320.000000	60.635594
4318.000000	60.704007
4316.000000	60.771074
4314.000000	60.838342
4312.000000	60.905690
4310.000000	60.972346
4308.000000	61.038161
4306.000000	61.104741
4304.000000	61.171134
4302.000000	61.237703
4300.000000	61.305008
4298.000000	61.372177
4296.000000	61.437135
4294.000000	61.501688
4292.000000	61.565247
