PE IR       SUBTECH     SPECTRUM    ASCII       PEDS        4.00        
   -1
TE109A_012_80K_BG.ASC
20/04/21
12:20:36.00
20/04/21
12:20:36.00
Administrator
TE109A, Tuesday, April 21 2020, 012.
1000.000000
#HDR
-1
-1
#GR
cm-1
EGY
1.0
0.0
6000.000000
-2.000000
2501
8
104.130665
10.979906
#DATA
6000.000000	15.560727
5998.000000	15.591262
5996.000000	15.620777
5994.000000	15.651263
5992.000000	15.681111
5990.000000	15.711622
5988.000000	15.742146
5986.000000	15.774009
5984.000000	15.805574
5982.000000	15.837127
5980.000000	15.867250
5978.000000	15.898208
5976.000000	15.930390
5974.000000	15.962481
5972.000000	15.994199
5970.000000	16.024821
5968.000000	16.054393
5966.000000	16.086577
5964.000000	16.118434
5962.000000	16.152031
5960.000000	16.185127
5958.000000	16.217046
5956.000000	16.248512
5954.000000	16.278642
5952.000000	16.308971
5950.000000	16.340220
5948.000000	16.370828
5946.000000	16.402983
5944.000000	16.434686
5942.000000	16.466709
5940.000000	16.497233
5938.000000	16.527382
5936.000000	16.558374
5934.000000	16.590548
5932.000000	16.622241
5930.000000	16.653285
5928.000000	16.684471
5926.000000	16.718117
5924.000000	16.752208
5922.000000	16.787137
5920.000000	16.820667
5918.000000	16.854370
5916.000000	16.885983
5914.000000	16.917638
5912.000000	16.950825
5910.000000	16.986174
5908.000000	17.020170
5906.000000	17.052607
5904.000000	17.085465
5902.000000	17.120109
5900.000000	17.154859
5898.000000	17.189403
5896.000000	17.222519
5894.000000	17.256710
5892.000000	17.290291
5890.000000	17.322671
5888.000000	17.355486
5886.000000	17.388759
5884.000000	17.422651
5882.000000	17.456056
5880.000000	17.489395
5878.000000	17.524455
5876.000000	17.559671
5874.000000	17.594336
5872.000000	17.626879
5870.000000	17.659904
5868.000000	17.693864
5866.000000	17.729928
5864.000000	17.765819
5862.000000	17.801557
5860.000000	17.835249
5858.000000	17.869289
5856.000000	17.904340
5854.000000	17.940404
5852.000000	17.975089
5850.000000	18.009462
5848.000000	18.044714
5846.000000	18.083593
5844.000000	18.122568
5842.000000	18.160147
5840.000000	18.197752
5838.000000	18.236442
5836.000000	18.274480
5834.000000	18.313041
5832.000000	18.351472
5830.000000	18.390642
5828.000000	18.428752
5826.000000	18.467011
5824.000000	18.506095
5822.000000	18.545499
5820.000000	18.583620
5818.000000	18.622055
5816.000000	18.660049
5814.000000	18.697993
5812.000000	18.734997
5810.000000	18.773638
5808.000000	18.812194
5806.000000	18.849128
5804.000000	18.884743
5802.000000	18.921636
5800.000000	18.959768
5798.000000	18.998486
5796.000000	19.035533
5794.000000	19.073888
5792.000000	19.111743
5790.000000	19.148725
5788.000000	19.186345
5786.000000	19.226417
5784.000000	19.267849
5782.000000	19.307648
5780.000000	19.345102
5778.000000	19.383008
5776.000000	19.422728
5774.000000	19.463514
5772.000000	19.501891
5770.000000	19.540891
5768.000000	19.579543
5766.000000	19.618409
5764.000000	19.657120
5762.000000	19.695675
5760.000000	19.735060
5758.000000	19.773220
5756.000000	19.809914
5754.000000	19.851208
5752.000000	19.893198
5750.000000	19.933445
5748.000000	19.970383
5746.000000	20.008765
5744.000000	20.047938
5742.000000	20.086006
5740.000000	20.121271
5738.000000	20.158433
5736.000000	20.196668
5734.000000	20.234312
5732.000000	20.270379
5730.000000	20.307210
5728.000000	20.344877
5726.000000	20.384494
5724.000000	20.423806
5722.000000	20.463077
5720.000000	20.502069
5718.000000	20.542000
5716.000000	20.582182
5714.000000	20.623834
5712.000000	20.664423
5710.000000	20.705146
5708.000000	20.744751
5706.000000	20.784354
5704.000000	20.824293
5702.000000	20.865466
5700.000000	20.907615
5698.000000	20.950344
5696.000000	20.992516
5694.000000	21.034754
5692.000000	21.076199
5690.000000	21.118334
5688.000000	21.160748
5686.000000	21.203095
5684.000000	21.245820
5682.000000	21.288726
5680.000000	21.331714
5678.000000	21.374812
5676.000000	21.416817
5674.000000	21.459136
5672.000000	21.500754
5670.000000	21.543071
5668.000000	21.586101
5666.000000	21.628573
5664.000000	21.668975
5662.000000	21.710425
5660.000000	21.753256
5658.000000	21.796725
5656.000000	21.839124
5654.000000	21.880746
5652.000000	21.921867
5650.000000	21.964665
5648.000000	22.009073
5646.000000	22.053722
5644.000000	22.096740
5642.000000	22.138720
5640.000000	22.181110
5638.000000	22.224052
5636.000000	22.265141
5634.000000	22.307771
5632.000000	22.350219
5630.000000	22.393121
5628.000000	22.435595
5626.000000	22.478989
5624.000000	22.521712
5622.000000	22.563928
5620.000000	22.604654
5618.000000	22.646526
5616.000000	22.688665
5614.000000	22.731220
5612.000000	22.773041
5610.000000	22.816031
5608.000000	22.858979
5606.000000	22.902738
5604.000000	22.945919
5602.000000	22.988422
5600.000000	23.030766
5598.000000	23.074525
5596.000000	23.118767
5594.000000	23.163520
5592.000000	23.206565
5590.000000	23.250437
5588.000000	23.293178
5586.000000	23.335911
5584.000000	23.378231
5582.000000	23.422402
5580.000000	23.467187
5578.000000	23.512067
5576.000000	23.555836
5574.000000	23.599729
5572.000000	23.644740
5570.000000	23.691089
5568.000000	23.735577
5566.000000	23.781466
5564.000000	23.826786
5562.000000	23.871956
5560.000000	23.915277
5558.000000	23.959841
5556.000000	24.004677
5554.000000	24.047825
5552.000000	24.090004
5550.000000	24.134332
5548.000000	24.180204
5546.000000	24.226831
5544.000000	24.271818
5542.000000	24.316458
5540.000000	24.358680
5538.000000	24.400595
5536.000000	24.443593
5534.000000	24.490779
5532.000000	24.538886
5530.000000	24.584484
5528.000000	24.627124
5526.000000	24.669868
5524.000000	24.712863
5522.000000	24.757071
5520.000000	24.800360
5518.000000	24.844825
5516.000000	24.889195
5514.000000	24.934583
5512.000000	24.979307
5510.000000	25.022804
5508.000000	25.066163
5506.000000	25.111354
5504.000000	25.156540
5502.000000	25.202233
5500.000000	25.247525
5498.000000	25.291580
5496.000000	25.330961
5494.000000	25.369237
5492.000000	25.410895
5490.000000	25.459894
5488.000000	25.510723
5486.000000	25.561734
5484.000000	25.611328
5482.000000	25.660436
5480.000000	25.702526
5478.000000	25.737775
5476.000000	25.776023
5474.000000	25.825020
5472.000000	25.879347
5470.000000	25.929504
5468.000000	25.974037
5466.000000	26.016107
5464.000000	26.056117
5462.000000	26.100525
5460.000000	26.150337
5458.000000	26.203083
5456.000000	26.254930
5454.000000	26.303041
5452.000000	26.344953
5450.000000	26.380550
5448.000000	26.415675
5446.000000	26.457436
5444.000000	26.502046
5442.000000	26.553788
5440.000000	26.606222
5438.000000	26.652678
5436.000000	26.694562
5434.000000	26.736840
5432.000000	26.778941
5430.000000	26.822490
5428.000000	26.875306
5426.000000	26.939195
5424.000000	27.000463
5422.000000	27.052410
5420.000000	27.096731
5418.000000	27.128962
5416.000000	27.151151
5414.000000	27.178994
5412.000000	27.224178
5410.000000	27.287182
5408.000000	27.352918
5406.000000	27.413095
5404.000000	27.465415
5402.000000	27.514430
5400.000000	27.556780
5398.000000	27.589714
5396.000000	27.619413
5394.000000	27.664430
5392.000000	27.723940
5390.000000	27.782397
5388.000000	27.826374
5386.000000	27.869294
5384.000000	27.921864
5382.000000	27.976192
5380.000000	28.013773
5378.000000	28.046408
5376.000000	28.092704
5374.000000	28.158436
5372.000000	28.224224
5370.000000	28.279723
5368.000000	28.325984
5366.000000	28.369472
5364.000000	28.416069
5362.000000	28.468465
5360.000000	28.520038
5358.000000	28.558380
5356.000000	28.584206
5354.000000	28.618687
5352.000000	28.669284
5350.000000	28.723901
5348.000000	28.760010
5346.000000	28.791403
5344.000000	28.835664
5342.000000	28.886378
5340.000000	28.933594
5338.000000	28.984475
5336.000000	29.048537
5334.000000	29.115040
5332.000000	29.167192
5330.000000	29.208858
5328.000000	29.253647
5326.000000	29.309408
5324.000000	29.371455
5322.000000	29.427194
5320.000000	29.474774
5318.000000	29.521528
5316.000000	29.569542
5314.000000	29.618867
5312.000000	29.662167
5310.000000	29.700583
5308.000000	29.742418
5306.000000	29.794638
5304.000000	29.850720
5302.000000	29.902271
5300.000000	29.950466
5298.000000	30.001469
5296.000000	30.051826
5294.000000	30.094168
5292.000000	30.132574
5290.000000	30.179582
5288.000000	30.233030
5286.000000	30.286389
5284.000000	30.336483
5282.000000	30.390178
5280.000000	30.444162
5278.000000	30.498098
5276.000000	30.551726
5274.000000	30.602494
5272.000000	30.646794
5270.000000	30.687871
5268.000000	30.723252
5266.000000	30.755593
5264.000000	30.795782
5262.000000	30.855074
5260.000000	30.921209
5258.000000	30.973955
5256.000000	31.017983
5254.000000	31.066480
5252.000000	31.114403
5250.000000	31.154862
5248.000000	31.194429
5246.000000	31.247524
5244.000000	31.311020
5242.000000	31.375534
5240.000000	31.434899
5238.000000	31.486778
5236.000000	31.533004
5234.000000	31.577531
5232.000000	31.623041
5230.000000	31.667547
5228.000000	31.707473
5226.000000	31.751342
5224.000000	31.805011
5222.000000	31.865181
5220.000000	31.921704
5218.000000	31.976057
5216.000000	32.029593
5214.000000	32.080759
5212.000000	32.121631
5210.000000	32.150785
5208.000000	32.181161
5206.000000	32.234087
5204.000000	32.306564
5202.000000	32.376134
5200.000000	32.427263
5198.000000	32.474093
5196.000000	32.526498
5194.000000	32.583386
5192.000000	32.636502
5190.000000	32.686402
5188.000000	32.733363
5186.000000	32.781397
5184.000000	32.833155
5182.000000	32.888724
5180.000000	32.944076
5178.000000	32.999346
5176.000000	33.053527
5174.000000	33.105424
5172.000000	33.155497
5170.000000	33.208428
5168.000000	33.260433
5166.000000	33.310934
5164.000000	33.360959
5162.000000	33.414452
5160.000000	33.467304
5158.000000	33.518673
5156.000000	33.569986
5154.000000	33.624126
5152.000000	33.679174
5150.000000	33.733816
5148.000000	33.786146
5146.000000	33.837069
5144.000000	33.886023
5142.000000	33.936941
5140.000000	33.989335
5138.000000	34.043998
5136.000000	34.096478
5134.000000	34.147610
5132.000000	34.197527
5130.000000	34.249792
5128.000000	34.303384
5126.000000	34.357081
5124.000000	34.408443
5122.000000	34.459527
5120.000000	34.509697
5118.000000	34.561641
5116.000000	34.613711
5114.000000	34.667040
5112.000000	34.720206
5110.000000	34.773257
5108.000000	34.825051
5106.000000	34.877965
5104.000000	34.930253
5102.000000	34.983061
5100.000000	35.035618
5098.000000	35.089886
5096.000000	35.143806
5094.000000	35.199169
5092.000000	35.254313
5090.000000	35.308458
5088.000000	35.361470
5086.000000	35.415859
5084.000000	35.470876
5082.000000	35.526716
5080.000000	35.580995
5078.000000	35.635183
5076.000000	35.689217
5074.000000	35.744285
5072.000000	35.797666
5070.000000	35.850868
5068.000000	35.905147
5066.000000	35.960624
5064.000000	36.014867
5062.000000	36.069669
5060.000000	36.124612
5058.000000	36.178944
5056.000000	36.230908
5054.000000	36.284892
5052.000000	36.340466
5050.000000	36.397058
5048.000000	36.450255
5046.000000	36.501751
5044.000000	36.554102
5042.000000	36.611256
5040.000000	36.668192
5038.000000	36.722382
5036.000000	36.773044
5034.000000	36.825010
5032.000000	36.878474
5030.000000	36.932601
5028.000000	36.984344
5026.000000	37.037045
5024.000000	37.091149
5022.000000	37.145877
5020.000000	37.199371
5018.000000	37.253527
5016.000000	37.307942
5014.000000	37.362756
5012.000000	37.418042
5010.000000	37.475109
5008.000000	37.531251
5006.000000	37.585505
5004.000000	37.638361
5002.000000	37.693529
5000.000000	37.750211
4998.000000	37.808438
4996.000000	37.865412
4994.000000	37.921200
4992.000000	37.975896
4990.000000	38.031928
4988.000000	38.087213
4986.000000	38.143629
4984.000000	38.200841
4982.000000	38.258720
4980.000000	38.314486
4978.000000	38.370127
4976.000000	38.425388
4974.000000	38.481772
4972.000000	38.537574
4970.000000	38.593111
4968.000000	38.648332
4966.000000	38.705216
4964.000000	38.761105
4962.000000	38.816061
4960.000000	38.870028
4958.000000	38.925247
4956.000000	38.980801
4954.000000	39.036877
4952.000000	39.091358
4950.000000	39.146651
4948.000000	39.203028
4946.000000	39.259023
4944.000000	39.312208
4942.000000	39.366388
4940.000000	39.421470
4938.000000	39.477171
4936.000000	39.532130
4934.000000	39.588374
4932.000000	39.644378
4930.000000	39.699811
4928.000000	39.753236
4926.000000	39.806910
4924.000000	39.860750
4922.000000	39.915758
4920.000000	39.970342
4918.000000	40.026441
4916.000000	40.083568
4914.000000	40.140874
4912.000000	40.195538
4910.000000	40.250976
4908.000000	40.308252
4906.000000	40.366281
4904.000000	40.421580
4902.000000	40.478007
4900.000000	40.535013
4898.000000	40.593144
4896.000000	40.651306
4894.000000	40.709548
4892.000000	40.766051
4890.000000	40.823313
4888.000000	40.881132
4886.000000	40.939214
4884.000000	40.996985
4882.000000	41.056800
4880.000000	41.115400
4878.000000	41.171831
4876.000000	41.226630
4874.000000	41.284405
4872.000000	41.342501
4870.000000	41.400072
4868.000000	41.455823
4866.000000	41.512545
4864.000000	41.567862
4862.000000	41.624420
4860.000000	41.680138
4858.000000	41.737537
4856.000000	41.795237
4854.000000	41.853456
4852.000000	41.909720
4850.000000	41.967464
4848.000000	42.024579
4846.000000	42.079648
4844.000000	42.133164
4842.000000	42.188740
4840.000000	42.245140
4838.000000	42.302625
4836.000000	42.359749
4834.000000	42.416717
4832.000000	42.471067
4830.000000	42.525684
4828.000000	42.582507
4826.000000	42.641283
4824.000000	42.697812
4822.000000	42.753946
4820.000000	42.810728
4818.000000	42.867514
4816.000000	42.922959
4814.000000	42.979786
4812.000000	43.037735
4810.000000	43.096071
4808.000000	43.153074
4806.000000	43.211343
4804.000000	43.270290
4802.000000	43.330079
4800.000000	43.389489
4798.000000	43.448571
4796.000000	43.506360
4794.000000	43.566136
4792.000000	43.626237
4790.000000	43.685605
4788.000000	43.743114
4786.000000	43.801337
4784.000000	43.859209
4782.000000	43.918308
4780.000000	43.976394
4778.000000	44.034096
4776.000000	44.091399
4774.000000	44.150607
4772.000000	44.209813
4770.000000	44.270010
4768.000000	44.328989
4766.000000	44.386693
4764.000000	44.443145
4762.000000	44.501035
4760.000000	44.558295
4758.000000	44.615376
4756.000000	44.671701
4754.000000	44.729232
4752.000000	44.785805
4750.000000	44.842526
4748.000000	44.896994
4746.000000	44.952271
4744.000000	45.009735
4742.000000	45.068875
4740.000000	45.124271
4738.000000	45.178022
4736.000000	45.233170
4734.000000	45.290486
4732.000000	45.348315
4730.000000	45.407877
4728.000000	45.467507
4726.000000	45.526797
4724.000000	45.584198
4722.000000	45.641374
4720.000000	45.698974
4718.000000	45.758474
4716.000000	45.817469
4714.000000	45.877709
4712.000000	45.938611
4710.000000	46.000336
4708.000000	46.061202
4706.000000	46.123427
4704.000000	46.185016
4702.000000	46.247645
4700.000000	46.311873
4698.000000	46.375956
4696.000000	46.434788
4694.000000	46.492164
4692.000000	46.551140
4690.000000	46.612056
4688.000000	46.672022
4686.000000	46.732690
4684.000000	46.792618
4682.000000	46.852012
4680.000000	46.911286
4678.000000	46.972513
4676.000000	47.031185
4674.000000	47.088160
4672.000000	47.147283
4670.000000	47.210454
4668.000000	47.273200
4666.000000	47.334028
4664.000000	47.391811
4662.000000	47.450085
4660.000000	47.510269
4658.000000	47.571456
4656.000000	47.631754
4654.000000	47.693013
4652.000000	47.753402
4650.000000	47.813572
4648.000000	47.872759
4646.000000	47.933993
4644.000000	47.995133
4642.000000	48.054861
4640.000000	48.112221
4638.000000	48.172491
4636.000000	48.233462
4634.000000	48.293180
4632.000000	48.351291
4630.000000	48.410208
4628.000000	48.470337
4626.000000	48.533094
4624.000000	48.595080
4622.000000	48.656408
4620.000000	48.717940
4618.000000	48.779291
4616.000000	48.838352
4614.000000	48.899326
4612.000000	48.962045
4610.000000	49.026369
4608.000000	49.089933
4606.000000	49.153476
4604.000000	49.217232
4602.000000	49.282896
4600.000000	49.347208
4598.000000	49.410675
4596.000000	49.473581
4594.000000	49.536718
4592.000000	49.598379
4590.000000	49.660578
4588.000000	49.723373
4586.000000	49.787310
4584.000000	49.850669
4582.000000	49.914353
4580.000000	49.976965
4578.000000	50.040588
4576.000000	50.103798
4574.000000	50.167314
4572.000000	50.228992
4570.000000	50.290976
4568.000000	50.352808
4566.000000	50.416492
4564.000000	50.479082
4562.000000	50.541320
4560.000000	50.603756
4558.000000	50.667972
4556.000000	50.729386
4554.000000	50.788774
4552.000000	50.849054
4550.000000	50.912552
4548.000000	50.975741
4546.000000	51.037556
4544.000000	51.097016
4542.000000	51.158367
4540.000000	51.220732
4538.000000	51.282696
4536.000000	51.343363
4534.000000	51.406788
4532.000000	51.469840
4530.000000	51.531495
4528.000000	51.591765
4526.000000	51.654192
4524.000000	51.717512
4522.000000	51.781175
4520.000000	51.843555
4518.000000	51.906665
4516.000000	51.969788
4514.000000	52.033165
4512.000000	52.096124
4510.000000	52.161081
4508.000000	52.225855
4506.000000	52.290314
4504.000000	52.354378
4502.000000	52.419132
4500.000000	52.483840
4498.000000	52.549682
4496.000000	52.612797
4494.000000	52.675872
4492.000000	52.741793
4490.000000	52.809184
4488.000000	52.873715
4486.000000	52.937385
4484.000000	52.999271
4482.000000	53.061538
4480.000000	53.124390
4478.000000	53.188765
4476.000000	53.252136
4474.000000	53.314993
4472.000000	53.375401
4470.000000	53.436622
4468.000000	53.499398
4466.000000	53.564178
4464.000000	53.627254
4462.000000	53.688607
4460.000000	53.748485
4458.000000	53.811164
4456.000000	53.874411
4454.000000	53.934998
4452.000000	53.993150
4450.000000	54.054456
4448.000000	54.116879
4446.000000	54.178367
4444.000000	54.237847
4442.000000	54.299250
4440.000000	54.362150
4438.000000	54.424680
4436.000000	54.485167
4434.000000	54.547716
4432.000000	54.610537
4430.000000	54.673139
4428.000000	54.734258
4426.000000	54.796472
4424.000000	54.859208
4422.000000	54.923746
4420.000000	54.986482
4418.000000	55.048872
4416.000000	55.112658
4414.000000	55.178530
4412.000000	55.241329
4410.000000	55.303966
4408.000000	55.367385
4406.000000	55.432625
4404.000000	55.497871
4402.000000	55.562379
4400.000000	55.624625
4398.000000	55.687286
4396.000000	55.749132
4394.000000	55.810393
4392.000000	55.872123
4390.000000	55.936791
4388.000000	56.000226
4386.000000	56.061291
4384.000000	56.121613
4382.000000	56.183032
4380.000000	56.241520
4378.000000	56.299833
4376.000000	56.359902
4374.000000	56.420942
4372.000000	56.479496
4370.000000	56.537761
4368.000000	56.595782
4366.000000	56.656597
4364.000000	56.717915
4362.000000	56.778955
4360.000000	56.839697
4358.000000	56.902158
4356.000000	56.963083
4354.000000	57.023478
4352.000000	57.084666
4350.000000	57.148362
4348.000000	57.210636
4346.000000	57.273395
4344.000000	57.337793
4342.000000	57.402668
4340.000000	57.464079
4338.000000	57.524810
4336.000000	57.586302
4334.000000	57.649543
4332.000000	57.712793
4330.000000	57.776974
4328.000000	57.840591
4326.000000	57.905892
4324.000000	57.972331
4322.000000	58.039080
4320.000000	58.105522
4318.000000	58.173889
4316.000000	58.240843
4314.000000	58.306580
4312.000000	58.372364
4310.000000	58.439049
4308.000000	58.505205
4306.000000	58.572855
4304.000000	58.639314
4302.000000	58.703959
4300.000000	58.767399
4298.000000	58.831664
4296.000000	58.896629
4294.000000	58.963381
4292.000000	59.028593
