PE IR       SUBTECH     SPECTRUM    ASCII       PEDS        4.00        
   -1
TE109A_040_110K_SB.ASC
20/04/21
15:05:13.00
20/04/21
15:05:13.00
Administrator
TE109A, Tuesday, April 21 2020, 040.
1000.000000
#HDR
-1
-1
#GR
cm-1
EGY
1.0
0.0
6000.000000
-2.000000
2501
8
7.597916
0.782669
#DATA
6000.000000	1.364390
5998.000000	1.366096
5996.000000	1.370291
5994.000000	1.374847
5992.000000	1.378196
5990.000000	1.379312
5988.000000	1.379969
5986.000000	1.381141
5984.000000	1.382601
5982.000000	1.384703
5980.000000	1.388643
5978.000000	1.392705
5976.000000	1.394693
5974.000000	1.396487
5972.000000	1.399348
5970.000000	1.403127
5968.000000	1.406889
5966.000000	1.409245
5964.000000	1.411699
5962.000000	1.414487
5960.000000	1.417370
5958.000000	1.420496
5956.000000	1.423756
5954.000000	1.426785
5952.000000	1.429783
5950.000000	1.433762
5948.000000	1.436855
5946.000000	1.439193
5944.000000	1.442269
5942.000000	1.444911
5940.000000	1.448219
5938.000000	1.451766
5936.000000	1.454523
5934.000000	1.456611
5932.000000	1.458152
5930.000000	1.461009
5928.000000	1.463495
5926.000000	1.465252
5924.000000	1.466360
5922.000000	1.470455
5920.000000	1.476126
5918.000000	1.480887
5916.000000	1.484180
5914.000000	1.486738
5912.000000	1.489486
5910.000000	1.492235
5908.000000	1.494257
5906.000000	1.495932
5904.000000	1.498429
5902.000000	1.501742
5900.000000	1.504503
5898.000000	1.507356
5896.000000	1.510768
5894.000000	1.514795
5892.000000	1.518907
5890.000000	1.522143
5888.000000	1.525009
5886.000000	1.527942
5884.000000	1.530662
5882.000000	1.533859
5880.000000	1.537302
5878.000000	1.540711
5876.000000	1.543566
5874.000000	1.544187
5872.000000	1.545056
5870.000000	1.547462
5868.000000	1.551792
5866.000000	1.557147
5864.000000	1.560778
5862.000000	1.564025
5860.000000	1.567040
5858.000000	1.569651
5856.000000	1.573217
5854.000000	1.576718
5852.000000	1.579361
5850.000000	1.581851
5848.000000	1.584945
5846.000000	1.590163
5844.000000	1.595605
5842.000000	1.597737
5840.000000	1.600080
5838.000000	1.602473
5836.000000	1.605486
5834.000000	1.607519
5832.000000	1.610575
5830.000000	1.616179
5828.000000	1.621381
5826.000000	1.624761
5824.000000	1.627889
5822.000000	1.630434
5820.000000	1.633041
5818.000000	1.634587
5816.000000	1.638148
5814.000000	1.643872
5812.000000	1.648066
5810.000000	1.650896
5808.000000	1.653963
5806.000000	1.657967
5804.000000	1.661549
5802.000000	1.663407
5800.000000	1.665400
5798.000000	1.668191
5796.000000	1.671741
5794.000000	1.674792
5792.000000	1.677610
5790.000000	1.680341
5788.000000	1.683676
5786.000000	1.689774
5784.000000	1.694996
5782.000000	1.699141
5780.000000	1.702035
5778.000000	1.705771
5776.000000	1.710671
5774.000000	1.714261
5772.000000	1.716004
5770.000000	1.717681
5768.000000	1.721088
5766.000000	1.725623
5764.000000	1.728124
5762.000000	1.730914
5760.000000	1.734554
5758.000000	1.739174
5756.000000	1.742854
5754.000000	1.746463
5752.000000	1.750289
5750.000000	1.753690
5748.000000	1.756497
5746.000000	1.760031
5744.000000	1.764618
5742.000000	1.768547
5740.000000	1.772079
5738.000000	1.775986
5736.000000	1.779411
5734.000000	1.781775
5732.000000	1.782898
5730.000000	1.784678
5728.000000	1.787645
5726.000000	1.790940
5724.000000	1.794834
5722.000000	1.798814
5720.000000	1.802963
5718.000000	1.805300
5716.000000	1.807822
5714.000000	1.811664
5712.000000	1.815198
5710.000000	1.819024
5708.000000	1.820972
5706.000000	1.823720
5704.000000	1.827518
5702.000000	1.831288
5700.000000	1.836431
5698.000000	1.840943
5696.000000	1.847272
5694.000000	1.852075
5692.000000	1.854035
5690.000000	1.854781
5688.000000	1.857120
5686.000000	1.863061
5684.000000	1.868341
5682.000000	1.872055
5680.000000	1.874870
5678.000000	1.877725
5676.000000	1.881798
5674.000000	1.886341
5672.000000	1.891519
5670.000000	1.894736
5668.000000	1.896997
5666.000000	1.900429
5664.000000	1.904973
5662.000000	1.909089
5660.000000	1.911843
5658.000000	1.915390
5656.000000	1.918780
5654.000000	1.921805
5652.000000	1.925124
5650.000000	1.930256
5648.000000	1.935777
5646.000000	1.940894
5644.000000	1.944250
5642.000000	1.947001
5640.000000	1.949311
5638.000000	1.952843
5636.000000	1.955902
5634.000000	1.958705
5632.000000	1.960646
5630.000000	1.964674
5628.000000	1.970756
5626.000000	1.976752
5624.000000	1.982042
5622.000000	1.983949
5620.000000	1.985830
5618.000000	1.989749
5616.000000	1.995108
5614.000000	1.999436
5612.000000	2.001142
5610.000000	2.003592
5608.000000	2.008419
5606.000000	2.013191
5604.000000	2.016065
5602.000000	2.018873
5600.000000	2.023545
5598.000000	2.028417
5596.000000	2.032020
5594.000000	2.034486
5592.000000	2.037618
5590.000000	2.041407
5588.000000	2.046094
5586.000000	2.051167
5584.000000	2.056921
5582.000000	2.060589
5580.000000	2.062849
5578.000000	2.065185
5576.000000	2.068957
5574.000000	2.074154
5572.000000	2.078349
5570.000000	2.082545
5568.000000	2.087329
5566.000000	2.092114
5564.000000	2.095020
5562.000000	2.097606
5560.000000	2.100750
5558.000000	2.105861
5556.000000	2.110680
5554.000000	2.114030
5552.000000	2.118480
5550.000000	2.122785
5548.000000	2.126577
5546.000000	2.130679
5544.000000	2.135308
5542.000000	2.140349
5540.000000	2.143404
5538.000000	2.145813
5536.000000	2.149117
5534.000000	2.153671
5532.000000	2.159234
5530.000000	2.163319
5528.000000	2.165141
5526.000000	2.167726
5524.000000	2.171861
5522.000000	2.176893
5520.000000	2.181482
5518.000000	2.185276
5516.000000	2.188601
5514.000000	2.192300
5512.000000	2.196559
5510.000000	2.199710
5508.000000	2.202800
5506.000000	2.207435
5504.000000	2.213839
5502.000000	2.218444
5500.000000	2.222442
5498.000000	2.226487
5496.000000	2.230523
5494.000000	2.234454
5492.000000	2.237357
5490.000000	2.241149
5488.000000	2.245641
5486.000000	2.250969
5484.000000	2.255698
5482.000000	2.259344
5480.000000	2.262658
5478.000000	2.265406
5476.000000	2.268324
5474.000000	2.272877
5472.000000	2.279136
5470.000000	2.284707
5468.000000	2.287891
5466.000000	2.290767
5464.000000	2.294383
5462.000000	2.299147
5460.000000	2.303740
5458.000000	2.307237
5456.000000	2.310679
5454.000000	2.314700
5452.000000	2.319206
5450.000000	2.321638
5448.000000	2.322724
5446.000000	2.325982
5444.000000	2.332645
5442.000000	2.339884
5440.000000	2.344649
5438.000000	2.348534
5436.000000	2.352988
5434.000000	2.356737
5432.000000	2.359444
5430.000000	2.362384
5428.000000	2.366970
5426.000000	2.371508
5424.000000	2.376206
5422.000000	2.381145
5420.000000	2.384062
5418.000000	2.385487
5416.000000	2.387341
5414.000000	2.391782
5412.000000	2.396002
5410.000000	2.399735
5408.000000	2.405539
5406.000000	2.412634
5404.000000	2.418540
5402.000000	2.422597
5400.000000	2.425456
5398.000000	2.428445
5396.000000	2.431151
5394.000000	2.435284
5392.000000	2.441539
5390.000000	2.444928
5388.000000	2.446686
5386.000000	2.449177
5384.000000	2.454954
5382.000000	2.461261
5380.000000	2.465375
5378.000000	2.469909
5376.000000	2.475658
5374.000000	2.481320
5372.000000	2.484700
5370.000000	2.487778
5368.000000	2.492577
5366.000000	2.497490
5364.000000	2.500517
5362.000000	2.504239
5360.000000	2.508248
5358.000000	2.511983
5356.000000	2.514311
5354.000000	2.517054
5352.000000	2.520587
5350.000000	2.525086
5348.000000	2.530724
5346.000000	2.535875
5344.000000	2.539363
5342.000000	2.541132
5340.000000	2.542629
5338.000000	2.546635
5336.000000	2.552168
5334.000000	2.556649
5332.000000	2.558496
5330.000000	2.561258
5328.000000	2.566024
5326.000000	2.571687
5324.000000	2.576430
5322.000000	2.579773
5320.000000	2.583780
5318.000000	2.588764
5316.000000	2.594687
5314.000000	2.598931
5312.000000	2.600424
5310.000000	2.602264
5308.000000	2.605065
5306.000000	2.608646
5304.000000	2.612183
5302.000000	2.616151
5300.000000	2.620788
5298.000000	2.624070
5296.000000	2.627014
5294.000000	2.631055
5292.000000	2.635900
5290.000000	2.640389
5288.000000	2.643353
5286.000000	2.645669
5284.000000	2.648122
5282.000000	2.651640
5280.000000	2.656414
5278.000000	2.660898
5276.000000	2.664139
5274.000000	2.667356
5272.000000	2.670971
5270.000000	2.674015
5268.000000	2.677341
5266.000000	2.681008
5264.000000	2.683993
5262.000000	2.685991
5260.000000	2.687432
5258.000000	2.689619
5256.000000	2.693630
5254.000000	2.699052
5252.000000	2.702507
5250.000000	2.703690
5248.000000	2.705262
5246.000000	2.708168
5244.000000	2.710403
5242.000000	2.711824
5240.000000	2.713791
5238.000000	2.715924
5236.000000	2.719752
5234.000000	2.724893
5232.000000	2.729299
5230.000000	2.730799
5228.000000	2.730889
5226.000000	2.733009
5224.000000	2.736867
5222.000000	2.740201
5220.000000	2.742041
5218.000000	2.742735
5216.000000	2.744417
5214.000000	2.746178
5212.000000	2.747651
5210.000000	2.748180
5208.000000	2.749774
5206.000000	2.753229
5204.000000	2.757032
5202.000000	2.758988
5200.000000	2.760601
5198.000000	2.763959
5196.000000	2.767400
5194.000000	2.769242
5192.000000	2.770744
5190.000000	2.773507
5188.000000	2.776190
5186.000000	2.777966
5184.000000	2.780065
5182.000000	2.782974
5180.000000	2.785751
5178.000000	2.789670
5176.000000	2.793975
5174.000000	2.797203
5172.000000	2.797168
5170.000000	2.796754
5168.000000	2.798236
5166.000000	2.801169
5164.000000	2.803612
5162.000000	2.805143
5160.000000	2.807500
5158.000000	2.811480
5156.000000	2.815988
5154.000000	2.819698
5152.000000	2.822999
5150.000000	2.824901
5148.000000	2.826427
5146.000000	2.828964
5144.000000	2.832289
5142.000000	2.833845
5140.000000	2.834230
5138.000000	2.836370
5136.000000	2.840363
5134.000000	2.844569
5132.000000	2.848542
5130.000000	2.851737
5128.000000	2.855229
5126.000000	2.858060
5124.000000	2.860274
5122.000000	2.862816
5120.000000	2.866806
5118.000000	2.871641
5116.000000	2.875357
5114.000000	2.880348
5112.000000	2.885472
5110.000000	2.889658
5108.000000	2.891998
5106.000000	2.894253
5104.000000	2.896582
5102.000000	2.899506
5100.000000	2.903618
5098.000000	2.907430
5096.000000	2.910598
5094.000000	2.914156
5092.000000	2.919461
5090.000000	2.924838
5088.000000	2.930490
5086.000000	2.936771
5084.000000	2.941600
5082.000000	2.944002
5080.000000	2.945822
5078.000000	2.949306
5076.000000	2.954580
5074.000000	2.960341
5072.000000	2.965656
5070.000000	2.969484
5068.000000	2.972389
5066.000000	2.976791
5064.000000	2.982916
5062.000000	2.987972
5060.000000	2.990828
5058.000000	2.993919
5056.000000	2.998716
5054.000000	3.003107
5052.000000	3.007706
5050.000000	3.011676
5048.000000	3.015444
5046.000000	3.021206
5044.000000	3.028800
5042.000000	3.034517
5040.000000	3.037232
5038.000000	3.040628
5036.000000	3.044850
5034.000000	3.048276
5032.000000	3.052520
5030.000000	3.057875
5028.000000	3.063408
5026.000000	3.067529
5024.000000	3.071538
5022.000000	3.074948
5020.000000	3.078366
5018.000000	3.083338
5016.000000	3.089915
5014.000000	3.096367
5012.000000	3.100917
5010.000000	3.104291
5008.000000	3.108516
5006.000000	3.114104
5004.000000	3.118697
5002.000000	3.121384
5000.000000	3.124139
4998.000000	3.129555
4996.000000	3.136598
4994.000000	3.143406
4992.000000	3.148424
4990.000000	3.152913
4988.000000	3.158200
4986.000000	3.163968
4984.000000	3.168535
4982.000000	3.172644
4980.000000	3.176232
4978.000000	3.179815
4976.000000	3.184759
4974.000000	3.192066
4972.000000	3.199698
4970.000000	3.206158
4968.000000	3.211598
4966.000000	3.216478
4964.000000	3.221245
4962.000000	3.225958
4960.000000	3.231725
4958.000000	3.237581
4956.000000	3.241614
4954.000000	3.244438
4952.000000	3.248276
4950.000000	3.252870
4948.000000	3.258602
4946.000000	3.264544
4944.000000	3.270207
4942.000000	3.275422
4940.000000	3.281164
4938.000000	3.287361
4936.000000	3.293580
4934.000000	3.298759
4932.000000	3.302595
4930.000000	3.306773
4928.000000	3.311527
4926.000000	3.317310
4924.000000	3.324568
4922.000000	3.330822
4920.000000	3.334981
4918.000000	3.340296
4916.000000	3.346535
4914.000000	3.351362
4912.000000	3.356594
4910.000000	3.362659
4908.000000	3.368777
4906.000000	3.374420
4904.000000	3.380349
4902.000000	3.386110
4900.000000	3.392160
4898.000000	3.398119
4896.000000	3.403072
4894.000000	3.407910
4892.000000	3.413800
4890.000000	3.420107
4888.000000	3.425288
4886.000000	3.429609
4884.000000	3.435667
4882.000000	3.443512
4880.000000	3.450735
4878.000000	3.456967
4876.000000	3.464559
4874.000000	3.472775
4872.000000	3.478315
4870.000000	3.480648
4868.000000	3.484677
4866.000000	3.491454
4864.000000	3.497377
4862.000000	3.500874
4860.000000	3.506306
4858.000000	3.514031
4856.000000	3.521612
4854.000000	3.528029
4852.000000	3.533345
4850.000000	3.537621
4848.000000	3.542457
4846.000000	3.548443
4844.000000	3.553296
4842.000000	3.558627
4840.000000	3.564959
4838.000000	3.572153
4836.000000	3.579105
4834.000000	3.585760
4832.000000	3.591174
4830.000000	3.596739
4828.000000	3.602999
4826.000000	3.610198
4824.000000	3.616761
4822.000000	3.621938
4820.000000	3.626710
4818.000000	3.632723
4816.000000	3.638321
4814.000000	3.644311
4812.000000	3.652215
4810.000000	3.659423
4808.000000	3.664105
4806.000000	3.669438
4804.000000	3.676674
4802.000000	3.684110
4800.000000	3.690131
4798.000000	3.695060
4796.000000	3.700574
4794.000000	3.707637
4792.000000	3.715183
4790.000000	3.723180
4788.000000	3.730998
4786.000000	3.736799
4784.000000	3.742286
4782.000000	3.747695
4780.000000	3.754173
4778.000000	3.761878
4776.000000	3.768769
4774.000000	3.774497
4772.000000	3.780982
4770.000000	3.787807
4768.000000	3.793496
4766.000000	3.800226
4764.000000	3.806853
4762.000000	3.813561
4760.000000	3.821111
4758.000000	3.826688
4756.000000	3.830124
4754.000000	3.834723
4752.000000	3.841718
4750.000000	3.848522
4748.000000	3.854953
4746.000000	3.862034
4744.000000	3.869099
4742.000000	3.876278
4740.000000	3.882913
4738.000000	3.888854
4736.000000	3.893713
4734.000000	3.899303
4732.000000	3.906157
4730.000000	3.913013
4728.000000	3.919005
4726.000000	3.924149
4724.000000	3.928880
4722.000000	3.933840
4720.000000	3.940333
4718.000000	3.948804
4716.000000	3.957556
4714.000000	3.964182
4712.000000	3.969676
4710.000000	3.976401
4708.000000	3.983846
4706.000000	3.990156
4704.000000	3.995824
4702.000000	4.001766
4700.000000	4.008166
4698.000000	4.014062
4696.000000	4.019978
4694.000000	4.025880
4692.000000	4.032356
4690.000000	4.039584
4688.000000	4.046046
4686.000000	4.051657
4684.000000	4.058177
4682.000000	4.065453
4680.000000	4.072053
4678.000000	4.078088
4676.000000	4.083864
4674.000000	4.089667
4672.000000	4.095777
4670.000000	4.102008
4668.000000	4.109719
4666.000000	4.116680
4664.000000	4.120888
4662.000000	4.125319
4660.000000	4.131942
4658.000000	4.138706
4656.000000	4.145494
4654.000000	4.152635
4652.000000	4.157913
4650.000000	4.161982
4648.000000	4.167389
4646.000000	4.173115
4644.000000	4.178639
4642.000000	4.185460
4640.000000	4.192994
4638.000000	4.199187
4636.000000	4.203560
4634.000000	4.207906
4632.000000	4.213529
4630.000000	4.220441
4628.000000	4.226440
4626.000000	4.231327
4624.000000	4.237262
4622.000000	4.245204
4620.000000	4.253210
4618.000000	4.259013
4616.000000	4.263867
4614.000000	4.268996
4612.000000	4.274442
4610.000000	4.280587
4608.000000	4.287197
4606.000000	4.293838
4604.000000	4.300206
4602.000000	4.306671
4600.000000	4.313829
4598.000000	4.321182
4596.000000	4.326702
4594.000000	4.331184
4592.000000	4.336597
4590.000000	4.342414
4588.000000	4.347595
4586.000000	4.353507
4584.000000	4.360068
4582.000000	4.366111
4580.000000	4.372504
4578.000000	4.379932
4576.000000	4.386873
4574.000000	4.393338
4572.000000	4.398837
4570.000000	4.404071
4568.000000	4.410486
4566.000000	4.417159
4564.000000	4.422168
4562.000000	4.426722
4560.000000	4.430361
4558.000000	4.434749
4556.000000	4.440427
4554.000000	4.446745
4552.000000	4.452401
4550.000000	4.458036
4548.000000	4.464657
4546.000000	4.472983
4544.000000	4.479962
4542.000000	4.484533
4540.000000	4.489210
4538.000000	4.495038
4536.000000	4.501406
4534.000000	4.507776
4532.000000	4.513523
4530.000000	4.518355
4528.000000	4.524502
4526.000000	4.531672
4524.000000	4.537443
4522.000000	4.542144
4520.000000	4.547936
4518.000000	4.553813
4516.000000	4.559851
4514.000000	4.566286
4512.000000	4.572245
4510.000000	4.577640
4508.000000	4.582119
4506.000000	4.587034
4504.000000	4.594299
4502.000000	4.601924
4500.000000	4.608330
4498.000000	4.615767
4496.000000	4.622305
4494.000000	4.626877
4492.000000	4.631666
4490.000000	4.637616
4488.000000	4.644184
4486.000000	4.651315
4484.000000	4.657283
4482.000000	4.661892
4480.000000	4.666619
4478.000000	4.672391
4476.000000	4.679634
4474.000000	4.687141
4472.000000	4.693207
4470.000000	4.698439
4468.000000	4.703572
4466.000000	4.707678
4464.000000	4.711605
4462.000000	4.716526
4460.000000	4.721233
4458.000000	4.726835
4456.000000	4.733027
4454.000000	4.737516
4452.000000	4.743333
4450.000000	4.750897
4448.000000	4.756447
4446.000000	4.761202
4444.000000	4.766852
4442.000000	4.772117
4440.000000	4.777914
4438.000000	4.783493
4436.000000	4.788655
4434.000000	4.795549
4432.000000	4.802006
4430.000000	4.805732
4428.000000	4.809826
4426.000000	4.816405
4424.000000	4.822651
4422.000000	4.827156
4420.000000	4.830352
4418.000000	4.834896
4416.000000	4.843257
4414.000000	4.852796
4412.000000	4.858621
4410.000000	4.860910
4408.000000	4.863432
4406.000000	4.868573
4404.000000	4.876070
4402.000000	4.882415
4400.000000	4.886170
4398.000000	4.890344
4396.000000	4.895262
4394.000000	4.901070
4392.000000	4.907924
4390.000000	4.912646
4388.000000	4.915902
4386.000000	4.922148
4384.000000	4.929073
4382.000000	4.934374
4380.000000	4.939680
4378.000000	4.945389
4376.000000	4.949669
4374.000000	4.952944
4372.000000	4.956017
4370.000000	4.959341
4368.000000	4.964660
4366.000000	4.970609
4364.000000	4.974199
4362.000000	4.977264
4360.000000	4.981751
4358.000000	4.987350
4356.000000	4.993245
4354.000000	4.997441
4352.000000	5.000485
4350.000000	5.004095
4348.000000	5.008505
4346.000000	5.014338
4344.000000	5.020619
4342.000000	5.024940
4340.000000	5.028504
4338.000000	5.033247
4336.000000	5.037850
4334.000000	5.042017
4332.000000	5.046639
4330.000000	5.050825
4328.000000	5.056095
4326.000000	5.062947
4324.000000	5.068907
4322.000000	5.073606
4320.000000	5.077534
4318.000000	5.081273
4316.000000	5.087217
4314.000000	5.092565
4312.000000	5.095619
4310.000000	5.100542
4308.000000	5.106661
4306.000000	5.110170
4304.000000	5.113964
4302.000000	5.119499
4300.000000	5.125564
4298.000000	5.131416
4296.000000	5.136095
4294.000000	5.140377
4292.000000	5.145534
4290.000000	5.149823
4288.000000	5.153219
4286.000000	5.156316
4284.000000	5.159874
4282.000000	5.164674
4280.000000	5.169650
4278.000000	5.173576
4276.000000	5.178349
4274.000000	5.184008
4272.000000	5.188509
4270.000000	5.192250
4268.000000	5.196775
4266.000000	5.201388
4264.000000	5.205212
4262.000000	5.208225
4260.000000	5.212133
4258.000000	5.217535
4256.000000	5.222372
4254.000000	5.225726
4252.000000	5.229159
4250.000000	5.233362
4248.000000	5.239160
4246.000000	5.246411
4244.000000	5.251600
4242.000000	5.253262
4240.000000	5.255463
4238.000000	5.260658
4236.000000	5.266419
4234.000000	5.271090
4232.000000	5.275414
4230.000000	5.280986
4228.000000	5.287076
4226.000000	5.291824
4224.000000	5.296474
4222.000000	5.301003
4220.000000	5.304599
4218.000000	5.309806
4216.000000	5.315302
4214.000000	5.319312
