PE IR       SUBTECH     SPECTRUM    ASCII       PEDS        4.00        
   -1
TE109A_035_105K_BG.ASC
20/04/21
14:14:40.00
20/04/21
14:14:40.00
Administrator
TE109A, Tuesday, April 21 2020, 035.
1000.000000
#HDR
-1
-1
#GR
cm-1
EGY
1.0
0.0
6000.000000
-2.000000
2501
8
105.498555
10.960977
#DATA
6000.000000	16.696175
5998.000000	16.726816
5996.000000	16.757690
5994.000000	16.788845
5992.000000	16.820411
5990.000000	16.853871
5988.000000	16.888445
5986.000000	16.922382
5984.000000	16.955269
5982.000000	16.986855
5980.000000	17.018967
5978.000000	17.053323
5976.000000	17.086796
5974.000000	17.121984
5972.000000	17.156719
5970.000000	17.191108
5968.000000	17.224958
5966.000000	17.257095
5964.000000	17.289727
5962.000000	17.324370
5960.000000	17.360301
5958.000000	17.396436
5956.000000	17.430283
5954.000000	17.463648
5952.000000	17.497534
5950.000000	17.532874
5948.000000	17.568976
5946.000000	17.603394
5944.000000	17.634510
5942.000000	17.665815
5940.000000	17.699329
5938.000000	17.735183
5936.000000	17.770638
5934.000000	17.803865
5932.000000	17.837244
5930.000000	17.870990
5928.000000	17.905867
5926.000000	17.941632
5924.000000	17.976796
5922.000000	18.011527
5920.000000	18.045962
5918.000000	18.082572
5916.000000	18.120704
5914.000000	18.157926
5912.000000	18.193641
5910.000000	18.229297
5908.000000	18.265393
5906.000000	18.302281
5904.000000	18.338288
5902.000000	18.374541
5900.000000	18.411495
5898.000000	18.448516
5896.000000	18.483617
5894.000000	18.519324
5892.000000	18.555292
5890.000000	18.592643
5888.000000	18.630864
5886.000000	18.666899
5884.000000	18.701227
5882.000000	18.736640
5880.000000	18.773960
5878.000000	18.813385
5876.000000	18.849539
5874.000000	18.882965
5872.000000	18.917891
5870.000000	18.957020
5868.000000	18.996177
5866.000000	19.032554
5864.000000	19.066368
5862.000000	19.102735
5860.000000	19.141269
5858.000000	19.179595
5856.000000	19.217073
5854.000000	19.255808
5852.000000	19.294863
5850.000000	19.333231
5848.000000	19.371748
5846.000000	19.413362
5844.000000	19.456087
5842.000000	19.498089
5840.000000	19.537275
5838.000000	19.577292
5836.000000	19.619364
5834.000000	19.663272
5832.000000	19.705553
5830.000000	19.745662
5828.000000	19.785743
5826.000000	19.826998
5824.000000	19.867803
5822.000000	19.908165
5820.000000	19.949352
5818.000000	19.992086
5816.000000	20.033889
5814.000000	20.074112
5812.000000	20.113054
5810.000000	20.152437
5808.000000	20.192275
5806.000000	20.233980
5804.000000	20.276958
5802.000000	20.319546
5800.000000	20.359616
5798.000000	20.398048
5796.000000	20.437735
5794.000000	20.479846
5792.000000	20.522587
5790.000000	20.563725
5788.000000	20.603451
5786.000000	20.644681
5784.000000	20.687418
5782.000000	20.731515
5780.000000	20.773500
5778.000000	20.814302
5776.000000	20.854569
5774.000000	20.897289
5772.000000	20.941340
5770.000000	20.983470
5768.000000	21.023488
5766.000000	21.063781
5764.000000	21.104848
5762.000000	21.148416
5760.000000	21.191266
5758.000000	21.233964
5756.000000	21.276887
5754.000000	21.319410
5752.000000	21.361746
5750.000000	21.402897
5748.000000	21.443444
5746.000000	21.484630
5744.000000	21.525505
5742.000000	21.567484
5740.000000	21.608853
5738.000000	21.650069
5736.000000	21.690038
5734.000000	21.729363
5732.000000	21.769994
5730.000000	21.811953
5728.000000	21.853719
5726.000000	21.894721
5724.000000	21.934970
5722.000000	21.976790
5720.000000	22.018365
5718.000000	22.061800
5716.000000	22.105896
5714.000000	22.149022
5712.000000	22.190899
5710.000000	22.234300
5708.000000	22.280437
5706.000000	22.326731
5704.000000	22.370606
5702.000000	22.413911
5700.000000	22.456820
5698.000000	22.500900
5696.000000	22.545927
5694.000000	22.591334
5692.000000	22.636802
5690.000000	22.683632
5688.000000	22.728802
5686.000000	22.771658
5684.000000	22.814344
5682.000000	22.860942
5680.000000	22.909757
5678.000000	22.956617
5676.000000	23.002177
5674.000000	23.048338
5672.000000	23.095022
5670.000000	23.140578
5668.000000	23.184802
5666.000000	23.228995
5664.000000	23.274113
5662.000000	23.320662
5660.000000	23.367947
5658.000000	23.415360
5656.000000	23.461668
5654.000000	23.506163
5652.000000	23.549409
5650.000000	23.593801
5648.000000	23.640419
5646.000000	23.687928
5644.000000	23.734653
5642.000000	23.780413
5640.000000	23.825078
5638.000000	23.869684
5636.000000	23.913762
5634.000000	23.959120
5632.000000	24.005761
5630.000000	24.053165
5628.000000	24.099745
5626.000000	24.144472
5624.000000	24.187364
5622.000000	24.230821
5620.000000	24.276938
5618.000000	24.325443
5616.000000	24.372958
5614.000000	24.418726
5612.000000	24.464190
5610.000000	24.511510
5608.000000	24.558481
5606.000000	24.604038
5604.000000	24.648344
5602.000000	24.693319
5600.000000	24.739022
5598.000000	24.785692
5596.000000	24.830168
5594.000000	24.875492
5592.000000	24.921853
5590.000000	24.970068
5588.000000	25.018802
5586.000000	25.066585
5584.000000	25.112531
5582.000000	25.156958
5580.000000	25.202608
5578.000000	25.252044
5576.000000	25.301845
5574.000000	25.350278
5572.000000	25.396893
5570.000000	25.443675
5568.000000	25.491175
5566.000000	25.540135
5564.000000	25.589313
5562.000000	25.637845
5560.000000	25.684746
5558.000000	25.732121
5556.000000	25.779192
5554.000000	25.825679
5552.000000	25.871879
5550.000000	25.918560
5548.000000	25.966343
5546.000000	26.015062
5544.000000	26.063672
5542.000000	26.112944
5540.000000	26.160614
5538.000000	26.207781
5536.000000	26.254961
5534.000000	26.303025
5532.000000	26.351802
5530.000000	26.400985
5528.000000	26.448217
5526.000000	26.492059
5524.000000	26.535328
5522.000000	26.582315
5520.000000	26.631991
5518.000000	26.682769
5516.000000	26.733391
5514.000000	26.783499
5512.000000	26.829083
5510.000000	26.871612
5508.000000	26.917322
5506.000000	26.968433
5504.000000	27.020789
5502.000000	27.069506
5500.000000	27.115467
5498.000000	27.160959
5496.000000	27.203414
5494.000000	27.246210
5492.000000	27.291455
5490.000000	27.343839
5488.000000	27.398718
5486.000000	27.452977
5484.000000	27.505241
5482.000000	27.555887
5480.000000	27.602540
5478.000000	27.643375
5476.000000	27.685724
5474.000000	27.737890
5472.000000	27.794706
5470.000000	27.847525
5468.000000	27.894928
5466.000000	27.942938
5464.000000	27.989401
5462.000000	28.036556
5460.000000	28.087758
5458.000000	28.143385
5456.000000	28.196700
5454.000000	28.244973
5452.000000	28.289876
5450.000000	28.332499
5448.000000	28.373413
5446.000000	28.416601
5444.000000	28.462322
5442.000000	28.515958
5440.000000	28.571730
5438.000000	28.622545
5436.000000	28.668676
5434.000000	28.715108
5432.000000	28.762230
5430.000000	28.809778
5428.000000	28.863157
5426.000000	28.924921
5424.000000	28.985004
5422.000000	29.038652
5420.000000	29.087264
5418.000000	29.127148
5416.000000	29.159970
5414.000000	29.195393
5412.000000	29.242792
5410.000000	29.303642
5408.000000	29.366978
5406.000000	29.426731
5404.000000	29.480981
5402.000000	29.532355
5400.000000	29.578773
5398.000000	29.617062
5396.000000	29.653269
5394.000000	29.701461
5392.000000	29.761814
5390.000000	29.821270
5388.000000	29.869587
5386.000000	29.917191
5384.000000	29.971766
5382.000000	30.028812
5380.000000	30.072806
5378.000000	30.111529
5376.000000	30.159164
5374.000000	30.220889
5372.000000	30.283402
5370.000000	30.338533
5368.000000	30.388278
5366.000000	30.437357
5364.000000	30.488114
5362.000000	30.542565
5360.000000	30.596967
5358.000000	30.641328
5356.000000	30.676481
5354.000000	30.717995
5352.000000	30.771756
5350.000000	30.827752
5348.000000	30.869292
5346.000000	30.907797
5344.000000	30.956880
5342.000000	31.009285
5340.000000	31.059771
5338.000000	31.113334
5336.000000	31.176275
5334.000000	31.239211
5332.000000	31.291995
5330.000000	31.336607
5328.000000	31.384335
5326.000000	31.440713
5324.000000	31.502910
5322.000000	31.559928
5320.000000	31.610668
5318.000000	31.660269
5316.000000	31.709957
5314.000000	31.760808
5312.000000	31.808271
5310.000000	31.853217
5308.000000	31.900869
5306.000000	31.954311
5304.000000	32.010065
5302.000000	32.064464
5300.000000	32.119633
5298.000000	32.175075
5296.000000	32.225711
5294.000000	32.268706
5292.000000	32.310525
5290.000000	32.359938
5288.000000	32.416671
5286.000000	32.474409
5284.000000	32.528756
5282.000000	32.583862
5280.000000	32.638764
5278.000000	32.693074
5276.000000	32.746159
5274.000000	32.798333
5272.000000	32.847483
5270.000000	32.893539
5268.000000	32.935437
5266.000000	32.976190
5264.000000	33.024131
5262.000000	33.085401
5260.000000	33.147963
5258.000000	33.198466
5256.000000	33.243548
5254.000000	33.294983
5252.000000	33.348585
5250.000000	33.397924
5248.000000	33.444508
5246.000000	33.495891
5244.000000	33.554958
5242.000000	33.617780
5240.000000	33.678490
5238.000000	33.733580
5236.000000	33.784094
5234.000000	33.832041
5232.000000	33.879399
5230.000000	33.926909
5228.000000	33.973442
5226.000000	34.024796
5224.000000	34.083101
5222.000000	34.142542
5220.000000	34.195391
5218.000000	34.247699
5216.000000	34.302759
5214.000000	34.358562
5212.000000	34.407197
5210.000000	34.445204
5208.000000	34.483770
5206.000000	34.537425
5204.000000	34.603953
5202.000000	34.669617
5200.000000	34.724886
5198.000000	34.777878
5196.000000	34.832978
5194.000000	34.889999
5192.000000	34.943905
5190.000000	34.995323
5188.000000	35.046210
5186.000000	35.099453
5184.000000	35.155496
5182.000000	35.212684
5180.000000	35.268237
5178.000000	35.324470
5176.000000	35.381828
5174.000000	35.436808
5172.000000	35.488989
5170.000000	35.542495
5168.000000	35.598128
5166.000000	35.652893
5164.000000	35.704631
5162.000000	35.758620
5160.000000	35.814470
5158.000000	35.870054
5156.000000	35.925221
5154.000000	35.982216
5152.000000	36.039267
5150.000000	36.093161
5148.000000	36.146718
5146.000000	36.200298
5144.000000	36.252751
5142.000000	36.304852
5140.000000	36.359701
5138.000000	36.417696
5136.000000	36.474340
5134.000000	36.528348
5132.000000	36.581316
5130.000000	36.636012
5128.000000	36.691680
5126.000000	36.746369
5124.000000	36.799387
5122.000000	36.852115
5120.000000	36.905943
5118.000000	36.961168
5116.000000	37.016338
5114.000000	37.070380
5112.000000	37.122901
5110.000000	37.176792
5108.000000	37.232884
5106.000000	37.290228
5104.000000	37.346260
5102.000000	37.402354
5100.000000	37.457584
5098.000000	37.513765
5096.000000	37.569838
5094.000000	37.626315
5092.000000	37.682554
5090.000000	37.739943
5088.000000	37.797848
5086.000000	37.854993
5084.000000	37.909968
5082.000000	37.965606
5080.000000	38.022343
5078.000000	38.080834
5076.000000	38.138576
5074.000000	38.194710
5072.000000	38.250248
5070.000000	38.307604
5068.000000	38.365043
5066.000000	38.420390
5064.000000	38.475962
5062.000000	38.533863
5060.000000	38.591380
5058.000000	38.647560
5056.000000	38.703241
5054.000000	38.759948
5052.000000	38.817280
5050.000000	38.875053
5048.000000	38.931185
5046.000000	38.986309
5044.000000	39.041220
5042.000000	39.096532
5040.000000	39.152667
5038.000000	39.210693
5036.000000	39.268044
5034.000000	39.323574
5032.000000	39.377844
5030.000000	39.433716
5028.000000	39.490028
5026.000000	39.547619
5024.000000	39.604791
5022.000000	39.660891
5020.000000	39.715981
5018.000000	39.772558
5016.000000	39.829292
5014.000000	39.885708
5012.000000	39.942282
5010.000000	40.000198
5008.000000	40.058987
5006.000000	40.117871
5004.000000	40.175466
5002.000000	40.232136
5000.000000	40.289704
4998.000000	40.347223
4996.000000	40.403158
4994.000000	40.461102
4992.000000	40.521834
4990.000000	40.582030
4988.000000	40.639635
4986.000000	40.697761
4984.000000	40.755926
4982.000000	40.813018
4980.000000	40.870698
4978.000000	40.929741
4976.000000	40.986176
4974.000000	41.041286
4972.000000	41.098840
4970.000000	41.159668
4968.000000	41.218092
4966.000000	41.274120
4964.000000	41.331116
4962.000000	41.390524
4960.000000	41.449141
4958.000000	41.504700
4956.000000	41.558970
4954.000000	41.616097
4952.000000	41.674692
4950.000000	41.732414
4948.000000	41.788576
4946.000000	41.846551
4944.000000	41.904503
4942.000000	41.962112
4940.000000	42.018425
4938.000000	42.075306
4936.000000	42.131905
4934.000000	42.189667
4932.000000	42.247624
4930.000000	42.305557
4928.000000	42.361944
4926.000000	42.418259
4924.000000	42.475217
4922.000000	42.534139
4920.000000	42.592251
4918.000000	42.649202
4916.000000	42.704295
4914.000000	42.761495
4912.000000	42.821414
4910.000000	42.882523
4908.000000	42.940550
4906.000000	42.997109
4904.000000	43.055313
4902.000000	43.116541
4900.000000	43.176138
4898.000000	43.234161
4896.000000	43.292929
4894.000000	43.353111
4892.000000	43.411897
4890.000000	43.471406
4888.000000	43.532186
4886.000000	43.592653
4884.000000	43.651997
4882.000000	43.710825
4880.000000	43.768362
4878.000000	43.827196
4876.000000	43.887512
4874.000000	43.948523
4872.000000	44.008261
4870.000000	44.066091
4868.000000	44.122476
4866.000000	44.180703
4864.000000	44.240052
4862.000000	44.298985
4860.000000	44.358410
4858.000000	44.419569
4856.000000	44.478516
4854.000000	44.534430
4852.000000	44.590032
4850.000000	44.648606
4848.000000	44.707585
4846.000000	44.764628
4844.000000	44.819811
4842.000000	44.878278
4840.000000	44.938903
4838.000000	44.998469
4836.000000	45.055265
4834.000000	45.111686
4832.000000	45.168233
4830.000000	45.226892
4828.000000	45.287135
4826.000000	45.346281
4824.000000	45.401833
4822.000000	45.458278
4820.000000	45.518347
4818.000000	45.579970
4816.000000	45.637371
4814.000000	45.693718
4812.000000	45.753262
4810.000000	45.816085
4808.000000	45.877625
4806.000000	45.936645
4804.000000	45.995659
4802.000000	46.056496
4800.000000	46.116792
4798.000000	46.175918
4796.000000	46.234928
4794.000000	46.295829
4792.000000	46.357182
4790.000000	46.419151
4788.000000	46.478597
4786.000000	46.537233
4784.000000	46.598425
4782.000000	46.660929
4780.000000	46.718668
4778.000000	46.775383
4776.000000	46.836412
4774.000000	46.900045
4772.000000	46.961036
4770.000000	47.020434
4768.000000	47.078969
4766.000000	47.138555
4764.000000	47.197983
4762.000000	47.256806
4760.000000	47.314141
4758.000000	47.373642
4756.000000	47.434830
4754.000000	47.493330
4752.000000	47.548092
4750.000000	47.605271
4748.000000	47.665900
4746.000000	47.726800
4744.000000	47.784810
4742.000000	47.841228
4740.000000	47.898882
4738.000000	47.959340
4736.000000	48.018813
4734.000000	48.077524
4732.000000	48.136500
4730.000000	48.195921
4728.000000	48.254024
4726.000000	48.312125
4724.000000	48.370654
4722.000000	48.431163
4720.000000	48.492977
4718.000000	48.554132
4716.000000	48.613405
4714.000000	48.674152
4712.000000	48.736490
4710.000000	48.799689
4708.000000	48.862900
4706.000000	48.926916
4704.000000	48.988733
4702.000000	49.050666
4700.000000	49.115156
4698.000000	49.181230
4696.000000	49.242780
4694.000000	49.302280
4692.000000	49.363346
4690.000000	49.427152
4688.000000	49.490425
4686.000000	49.552011
4684.000000	49.611201
4682.000000	49.672503
4680.000000	49.735091
4678.000000	49.796999
4676.000000	49.856269
4674.000000	49.915879
4672.000000	49.976443
4670.000000	50.038654
4668.000000	50.100922
4666.000000	50.163612
4664.000000	50.225512
4662.000000	50.286312
4660.000000	50.347469
4658.000000	50.409058
4656.000000	50.468542
4654.000000	50.527370
4652.000000	50.588926
4650.000000	50.654028
4648.000000	50.716918
4646.000000	50.777736
4644.000000	50.837753
4642.000000	50.899100
4640.000000	50.960120
4638.000000	51.022545
4636.000000	51.084192
4634.000000	51.145705
4632.000000	51.206092
4630.000000	51.266107
4628.000000	51.326651
4626.000000	51.388943
4624.000000	51.449877
4622.000000	51.510426
4620.000000	51.573300
4618.000000	51.637895
4616.000000	51.700649
4614.000000	51.764036
4612.000000	51.828835
4610.000000	51.893865
4608.000000	51.957494
4606.000000	52.022341
4604.000000	52.089287
4602.000000	52.156010
4600.000000	52.219589
4598.000000	52.283325
4596.000000	52.349245
4594.000000	52.416035
4592.000000	52.481182
4590.000000	52.544995
4588.000000	52.607713
4586.000000	52.671142
4584.000000	52.734827
4582.000000	52.800339
4580.000000	52.865832
4578.000000	52.929659
4576.000000	52.991334
4574.000000	53.055331
4572.000000	53.121847
4570.000000	53.188044
4568.000000	53.251188
4566.000000	53.313276
4564.000000	53.375973
4562.000000	53.440408
4560.000000	53.504795
4558.000000	53.568790
4556.000000	53.631526
4554.000000	53.693616
4552.000000	53.754421
4550.000000	53.816274
4548.000000	53.879531
4546.000000	53.944130
4544.000000	54.006784
4542.000000	54.068737
4540.000000	54.130827
4538.000000	54.194308
4536.000000	54.258388
4534.000000	54.322695
4532.000000	54.384663
4530.000000	54.447309
4528.000000	54.511299
4526.000000	54.576612
4524.000000	54.640694
4522.000000	54.705306
4520.000000	54.769822
4518.000000	54.833971
4516.000000	54.895920
4514.000000	54.959071
4512.000000	55.023895
4510.000000	55.089421
4508.000000	55.154753
4506.000000	55.220345
4504.000000	55.286811
4502.000000	55.353977
4500.000000	55.419702
4498.000000	55.485092
4496.000000	55.550747
4494.000000	55.614812
4492.000000	55.678641
4490.000000	55.744320
4488.000000	55.809461
4486.000000	55.875511
4484.000000	55.941708
4482.000000	56.006256
4480.000000	56.069025
4478.000000	56.132052
4476.000000	56.194730
4474.000000	56.258855
4472.000000	56.324688
4470.000000	56.390471
4468.000000	56.453112
4466.000000	56.515824
4464.000000	56.580433
4462.000000	56.643783
4460.000000	56.704316
4458.000000	56.765352
4456.000000	56.827396
4454.000000	56.891120
4452.000000	56.953844
4450.000000	57.014688
4448.000000	57.076220
4446.000000	57.140073
4444.000000	57.203712
4442.000000	57.267795
4440.000000	57.330208
4438.000000	57.391950
4436.000000	57.454546
4434.000000	57.518670
4432.000000	57.582728
4430.000000	57.646580
4428.000000	57.709541
4426.000000	57.774005
4424.000000	57.837402
4422.000000	57.898999
4420.000000	57.961042
4418.000000	58.025657
4416.000000	58.089254
4414.000000	58.152342
4412.000000	58.216308
4410.000000	58.283300
4408.000000	58.350945
4406.000000	58.416911
4404.000000	58.480114
4402.000000	58.543555
4400.000000	58.606762
4398.000000	58.671232
4396.000000	58.736407
4394.000000	58.801471
4392.000000	58.866600
4390.000000	58.931057
4388.000000	58.992406
4386.000000	59.052583
4384.000000	59.110876
4382.000000	59.169792
4380.000000	59.231483
4378.000000	59.292205
4376.000000	59.350695
4374.000000	59.412357
4372.000000	59.474997
4370.000000	59.537292
4368.000000	59.598636
4366.000000	59.657611
4364.000000	59.714845
4362.000000	59.775815
4360.000000	59.839530
4358.000000	59.903206
4356.000000	59.965371
4354.000000	60.029238
4352.000000	60.093296
4350.000000	60.155844
4348.000000	60.217489
4346.000000	60.280987
4344.000000	60.345617
4342.000000	60.409592
4340.000000	60.471900
4338.000000	60.535238
4336.000000	60.598325
4334.000000	60.662438
4332.000000	60.727276
4330.000000	60.790768
4328.000000	60.854644
4326.000000	60.921904
4324.000000	60.988693
4322.000000	61.055511
4320.000000	61.122003
4318.000000	61.187782
4316.000000	61.255354
4314.000000	61.324971
4312.000000	61.392428
4310.000000	61.458411
4308.000000	61.523920
4306.000000	61.591733
4304.000000	61.660552
4302.000000	61.726547
4300.000000	61.791039
4298.000000	61.858544
4296.000000	61.925194
4294.000000	61.988435
4292.000000	62.051203
