PE IR       SUBTECH     SPECTRUM    ASCII       PEDS        4.00        
   -1
TE109A_052_120K_SB.ASC
20/04/21
16:46:27.00
20/04/21
16:46:27.00
Administrator
TE109A, Tuesday, April 21 2020, 052.
1000.000000
#HDR
-1
-1
#GR
cm-1
EGY
1.0
0.0
6000.000000
-2.000000
2501
8
9.557532
0.985853
#DATA
6000.000000	1.693858
5998.000000	1.697428
5996.000000	1.699341
5994.000000	1.703148
5992.000000	1.708873
5990.000000	1.714019
5988.000000	1.716785
5986.000000	1.718908
5984.000000	1.722692
5982.000000	1.726681
5980.000000	1.729442
5978.000000	1.731186
5976.000000	1.733891
5974.000000	1.737229
5972.000000	1.741343
5970.000000	1.745687
5968.000000	1.750005
5966.000000	1.753022
5964.000000	1.756471
5962.000000	1.760023
5960.000000	1.763131
5958.000000	1.767184
5956.000000	1.770393
5954.000000	1.773457
5952.000000	1.776181
5950.000000	1.780044
5948.000000	1.785447
5946.000000	1.790449
5944.000000	1.794434
5942.000000	1.798540
5940.000000	1.802875
5938.000000	1.806303
5936.000000	1.807834
5934.000000	1.809077
5932.000000	1.811892
5930.000000	1.815765
5928.000000	1.819660
5926.000000	1.821868
5924.000000	1.824833
5922.000000	1.829412
5920.000000	1.834036
5918.000000	1.838267
5916.000000	1.841143
5914.000000	1.844815
5912.000000	1.849589
5910.000000	1.854318
5908.000000	1.859284
5906.000000	1.862789
5904.000000	1.866780
5902.000000	1.870533
5900.000000	1.873410
5898.000000	1.875412
5896.000000	1.877769
5894.000000	1.881801
5892.000000	1.886831
5890.000000	1.890881
5888.000000	1.893992
5886.000000	1.897535
5884.000000	1.901229
5882.000000	1.905600
5880.000000	1.909883
5878.000000	1.914717
5876.000000	1.919397
5874.000000	1.922843
5872.000000	1.926087
5870.000000	1.929297
5868.000000	1.933461
5866.000000	1.939044
5864.000000	1.944049
5862.000000	1.947225
5860.000000	1.949266
5858.000000	1.951655
5856.000000	1.956091
5854.000000	1.961007
5852.000000	1.964952
5850.000000	1.969236
5848.000000	1.973720
5846.000000	1.978555
5844.000000	1.982847
5842.000000	1.986555
5840.000000	1.990376
5838.000000	1.993576
5836.000000	1.997783
5834.000000	2.003247
5832.000000	2.008231
5830.000000	2.012751
5828.000000	2.017344
5826.000000	2.021891
5824.000000	2.026254
5822.000000	2.028944
5820.000000	2.031492
5818.000000	2.035144
5816.000000	2.039945
5814.000000	2.044939
5812.000000	2.048621
5810.000000	2.051870
5808.000000	2.056153
5806.000000	2.061772
5804.000000	2.067066
5802.000000	2.070833
5800.000000	2.075256
5798.000000	2.079457
5796.000000	2.083833
5794.000000	2.086734
5792.000000	2.088895
5790.000000	2.090937
5788.000000	2.094171
5786.000000	2.098953
5784.000000	2.104622
5782.000000	2.110408
5780.000000	2.115304
5778.000000	2.119462
5776.000000	2.122709
5774.000000	2.126064
5772.000000	2.130853
5770.000000	2.137290
5768.000000	2.141925
5766.000000	2.144888
5764.000000	2.148094
5762.000000	2.152812
5760.000000	2.157683
5758.000000	2.161486
5756.000000	2.165698
5754.000000	2.170766
5752.000000	2.175489
5750.000000	2.179607
5748.000000	2.183521
5746.000000	2.187903
5744.000000	2.192442
5742.000000	2.197884
5740.000000	2.202777
5738.000000	2.206511
5736.000000	2.210259
5734.000000	2.214944
5732.000000	2.219591
5730.000000	2.223756
5728.000000	2.227014
5726.000000	2.230626
5724.000000	2.233372
5722.000000	2.236943
5720.000000	2.242550
5718.000000	2.249497
5716.000000	2.254562
5714.000000	2.256863
5712.000000	2.259490
5710.000000	2.263879
5708.000000	2.269999
5706.000000	2.274307
5704.000000	2.277204
5702.000000	2.281587
5700.000000	2.288540
5698.000000	2.293811
5696.000000	2.297799
5694.000000	2.301313
5692.000000	2.306431
5690.000000	2.311733
5688.000000	2.315706
5686.000000	2.319478
5684.000000	2.323187
5682.000000	2.327154
5680.000000	2.332445
5678.000000	2.338479
5676.000000	2.344023
5674.000000	2.349558
5672.000000	2.353405
5670.000000	2.356550
5668.000000	2.360313
5666.000000	2.365467
5664.000000	2.371252
5662.000000	2.376539
5660.000000	2.381052
5658.000000	2.386247
5656.000000	2.391795
5654.000000	2.397188
5652.000000	2.401976
5650.000000	2.405722
5648.000000	2.409675
5646.000000	2.414318
5644.000000	2.418067
5642.000000	2.422141
5640.000000	2.426068
5638.000000	2.431402
5636.000000	2.436337
5634.000000	2.440651
5632.000000	2.445368
5630.000000	2.449460
5628.000000	2.453879
5626.000000	2.457897
5624.000000	2.462620
5622.000000	2.467265
5620.000000	2.472164
5618.000000	2.477846
5616.000000	2.484102
5614.000000	2.489101
5612.000000	2.492962
5610.000000	2.495845
5608.000000	2.498853
5606.000000	2.503691
5604.000000	2.510627
5602.000000	2.517344
5600.000000	2.523131
5598.000000	2.528280
5596.000000	2.533500
5594.000000	2.537289
5592.000000	2.540800
5590.000000	2.545339
5588.000000	2.549393
5586.000000	2.553214
5584.000000	2.559013
5582.000000	2.566078
5580.000000	2.572779
5578.000000	2.578170
5576.000000	2.583168
5574.000000	2.586374
5572.000000	2.587752
5570.000000	2.590813
5568.000000	2.596345
5566.000000	2.603508
5564.000000	2.609467
5562.000000	2.614741
5560.000000	2.619822
5558.000000	2.624007
5556.000000	2.628262
5554.000000	2.633474
5552.000000	2.640140
5550.000000	2.644764
5548.000000	2.647950
5546.000000	2.652556
5544.000000	2.658467
5542.000000	2.665326
5540.000000	2.670702
5538.000000	2.675316
5536.000000	2.679140
5534.000000	2.683166
5532.000000	2.688435
5530.000000	2.693031
5528.000000	2.697571
5526.000000	2.702373
5524.000000	2.707956
5522.000000	2.713423
5520.000000	2.718326
5518.000000	2.723060
5516.000000	2.727450
5514.000000	2.731794
5512.000000	2.735229
5510.000000	2.739106
5508.000000	2.744450
5506.000000	2.749990
5504.000000	2.754943
5502.000000	2.759989
5500.000000	2.765988
5498.000000	2.772151
5496.000000	2.776026
5494.000000	2.778906
5492.000000	2.782376
5490.000000	2.787940
5488.000000	2.794675
5486.000000	2.800981
5484.000000	2.808226
5482.000000	2.814929
5480.000000	2.819188
5478.000000	2.821071
5476.000000	2.823143
5474.000000	2.828226
5472.000000	2.834671
5470.000000	2.840734
5468.000000	2.845759
5466.000000	2.849849
5464.000000	2.855038
5462.000000	2.861158
5460.000000	2.867594
5458.000000	2.874295
5456.000000	2.881336
5454.000000	2.886605
5452.000000	2.889491
5450.000000	2.891505
5448.000000	2.894620
5446.000000	2.898957
5444.000000	2.903694
5442.000000	2.909322
5440.000000	2.915786
5438.000000	2.922052
5436.000000	2.927828
5434.000000	2.931403
5432.000000	2.935198
5430.000000	2.940610
5428.000000	2.948575
5426.000000	2.954922
5424.000000	2.959143
5422.000000	2.964032
5420.000000	2.970091
5418.000000	2.973739
5416.000000	2.975032
5414.000000	2.977601
5412.000000	2.984177
5410.000000	2.991616
5408.000000	2.998460
5406.000000	3.004763
5404.000000	3.010380
5402.000000	3.015120
5400.000000	3.018620
5398.000000	3.022153
5396.000000	3.025762
5394.000000	3.031257
5392.000000	3.038363
5390.000000	3.044515
5388.000000	3.048980
5386.000000	3.053851
5384.000000	3.060424
5382.000000	3.066686
5380.000000	3.070734
5378.000000	3.073382
5376.000000	3.078186
5374.000000	3.085304
5372.000000	3.092756
5370.000000	3.098483
5368.000000	3.104588
5366.000000	3.110954
5364.000000	3.115550
5362.000000	3.118769
5360.000000	3.122541
5358.000000	3.127214
5356.000000	3.131591
5354.000000	3.135873
5352.000000	3.140989
5350.000000	3.146663
5348.000000	3.151128
5346.000000	3.155288
5344.000000	3.159973
5342.000000	3.165320
5340.000000	3.169709
5338.000000	3.174852
5336.000000	3.180886
5334.000000	3.187264
5332.000000	3.192451
5330.000000	3.197221
5328.000000	3.202083
5326.000000	3.206106
5324.000000	3.209181
5322.000000	3.213653
5320.000000	3.220661
5318.000000	3.227573
5316.000000	3.232529
5314.000000	3.237423
5312.000000	3.242624
5310.000000	3.247131
5308.000000	3.251315
5306.000000	3.256794
5304.000000	3.261629
5302.000000	3.265652
5300.000000	3.269791
5298.000000	3.274289
5296.000000	3.278440
5294.000000	3.282307
5292.000000	3.287068
5290.000000	3.291248
5288.000000	3.294950
5286.000000	3.299075
5284.000000	3.302941
5282.000000	3.308098
5280.000000	3.313691
5278.000000	3.319197
5276.000000	3.324417
5274.000000	3.329395
5272.000000	3.334445
5270.000000	3.337908
5268.000000	3.341901
5266.000000	3.346172
5264.000000	3.350841
5262.000000	3.355168
5260.000000	3.358703
5258.000000	3.361632
5256.000000	3.366261
5254.000000	3.373761
5252.000000	3.379952
5250.000000	3.382644
5248.000000	3.384019
5246.000000	3.387941
5244.000000	3.393044
5242.000000	3.398026
5240.000000	3.401883
5238.000000	3.405123
5236.000000	3.408143
5234.000000	3.410883
5232.000000	3.414451
5230.000000	3.418739
5228.000000	3.424113
5226.000000	3.427877
5224.000000	3.430715
5222.000000	3.432887
5220.000000	3.434912
5218.000000	3.438988
5216.000000	3.445203
5214.000000	3.451639
5212.000000	3.454591
5210.000000	3.456244
5208.000000	3.459163
5206.000000	3.464205
5204.000000	3.470207
5202.000000	3.474139
5200.000000	3.476682
5198.000000	3.479360
5196.000000	3.483441
5194.000000	3.487559
5192.000000	3.490162
5190.000000	3.491709
5188.000000	3.493615
5186.000000	3.497653
5184.000000	3.502468
5182.000000	3.506699
5180.000000	3.510215
5178.000000	3.514090
5176.000000	3.518134
5174.000000	3.522105
5172.000000	3.525780
5170.000000	3.528307
5168.000000	3.531584
5166.000000	3.536364
5164.000000	3.540170
5162.000000	3.543122
5160.000000	3.546629
5158.000000	3.551846
5156.000000	3.557602
5154.000000	3.562224
5152.000000	3.565115
5150.000000	3.567004
5148.000000	3.570543
5146.000000	3.575204
5144.000000	3.579143
5142.000000	3.582401
5140.000000	3.585424
5138.000000	3.589414
5136.000000	3.594718
5134.000000	3.599130
5132.000000	3.602698
5130.000000	3.606344
5128.000000	3.610824
5126.000000	3.615501
5124.000000	3.620264
5122.000000	3.624623
5120.000000	3.628508
5118.000000	3.632262
5116.000000	3.635967
5114.000000	3.639292
5112.000000	3.643774
5110.000000	3.650119
5108.000000	3.655905
5106.000000	3.660090
5104.000000	3.662923
5102.000000	3.666759
5100.000000	3.672142
5098.000000	3.678110
5096.000000	3.684400
5094.000000	3.689744
5092.000000	3.694414
5090.000000	3.697915
5088.000000	3.702353
5086.000000	3.707709
5084.000000	3.712999
5082.000000	3.719226
5080.000000	3.726009
5078.000000	3.732327
5076.000000	3.736893
5074.000000	3.741672
5072.000000	3.746398
5070.000000	3.750317
5068.000000	3.754413
5066.000000	3.759724
5064.000000	3.766440
5062.000000	3.773039
5060.000000	3.779811
5058.000000	3.786441
5056.000000	3.792023
5054.000000	3.796598
5052.000000	3.800949
5050.000000	3.806125
5048.000000	3.811090
5046.000000	3.815104
5044.000000	3.819349
5042.000000	3.824579
5040.000000	3.830786
5038.000000	3.836214
5036.000000	3.841138
5034.000000	3.846864
5032.000000	3.852418
5030.000000	3.857257
5028.000000	3.862245
5026.000000	3.868684
5024.000000	3.875371
5022.000000	3.880452
5020.000000	3.885300
5018.000000	3.890882
5016.000000	3.897496
5014.000000	3.903711
5012.000000	3.909205
5010.000000	3.914734
5008.000000	3.920517
5006.000000	3.925644
5004.000000	3.930301
5002.000000	3.936014
5000.000000	3.943417
4998.000000	3.950933
4996.000000	3.957062
4994.000000	3.962199
4992.000000	3.967220
4990.000000	3.972519
4988.000000	3.978777
4986.000000	3.985962
4984.000000	3.991808
4982.000000	3.996572
4980.000000	4.002643
4978.000000	4.010060
4976.000000	4.016741
4974.000000	4.023120
4972.000000	4.029114
4970.000000	4.033753
4968.000000	4.039348
4966.000000	4.046547
4964.000000	4.054338
4962.000000	4.062080
4960.000000	4.069178
4958.000000	4.074769
4956.000000	4.079108
4954.000000	4.083877
4952.000000	4.089206
4950.000000	4.094599
4948.000000	4.100268
4946.000000	4.107215
4944.000000	4.115255
4942.000000	4.121591
4940.000000	4.126830
4938.000000	4.133105
4936.000000	4.139987
4934.000000	4.146196
4932.000000	4.152920
4930.000000	4.160130
4928.000000	4.165967
4926.000000	4.170538
4924.000000	4.175501
4922.000000	4.180542
4920.000000	4.185977
4918.000000	4.192675
4916.000000	4.200788
4914.000000	4.207876
4912.000000	4.213429
4910.000000	4.218482
4908.000000	4.225350
4906.000000	4.233828
4904.000000	4.241055
4902.000000	4.247031
4900.000000	4.253780
4898.000000	4.262052
4896.000000	4.269480
4894.000000	4.275783
4892.000000	4.281592
4890.000000	4.289024
4888.000000	4.297376
4886.000000	4.304263
4884.000000	4.311186
4882.000000	4.319817
4880.000000	4.328101
4878.000000	4.334034
4876.000000	4.339436
4874.000000	4.345609
4872.000000	4.351785
4870.000000	4.357145
4868.000000	4.362546
4866.000000	4.369931
4864.000000	4.378873
4862.000000	4.385574
4860.000000	4.390531
4858.000000	4.397384
4856.000000	4.406324
4854.000000	4.414820
4852.000000	4.423047
4850.000000	4.431510
4848.000000	4.437793
4846.000000	4.442418
4844.000000	4.448028
4842.000000	4.455535
4840.000000	4.461879
4838.000000	4.467930
4836.000000	4.474626
4834.000000	4.481839
4832.000000	4.488788
4830.000000	4.495843
4828.000000	4.503044
4826.000000	4.511146
4824.000000	4.520994
4822.000000	4.530002
4820.000000	4.536558
4818.000000	4.542197
4816.000000	4.548469
4814.000000	4.554860
4812.000000	4.561246
4810.000000	4.569159
4808.000000	4.578351
4806.000000	4.586598
4804.000000	4.594566
4802.000000	4.603272
4800.000000	4.611213
4798.000000	4.617572
4796.000000	4.623553
4794.000000	4.630805
4792.000000	4.639891
4790.000000	4.650009
4788.000000	4.658477
4786.000000	4.664335
4784.000000	4.669949
4782.000000	4.677432
4780.000000	4.685768
4778.000000	4.692991
4776.000000	4.701082
4774.000000	4.710460
4772.000000	4.718459
4770.000000	4.725148
4768.000000	4.733092
4766.000000	4.741327
4764.000000	4.747927
4762.000000	4.754619
4760.000000	4.762356
4758.000000	4.770614
4756.000000	4.777890
4754.000000	4.783897
4752.000000	4.789589
4750.000000	4.796888
4748.000000	4.805967
4746.000000	4.814211
4744.000000	4.820490
4742.000000	4.826045
4740.000000	4.833943
4738.000000	4.843078
4736.000000	4.850163
4734.000000	4.856429
4732.000000	4.865373
4730.000000	4.874998
4728.000000	4.882560
4726.000000	4.889113
4724.000000	4.895144
4722.000000	4.901356
4720.000000	4.908432
4718.000000	4.916511
4716.000000	4.925127
4714.000000	4.934094
4712.000000	4.941670
4710.000000	4.948418
4708.000000	4.956022
4706.000000	4.964298
4704.000000	4.971866
4702.000000	4.979602
4700.000000	4.987823
4698.000000	4.995552
4696.000000	5.002811
4694.000000	5.010900
4692.000000	5.019084
4690.000000	5.026813
4688.000000	5.034223
4686.000000	5.042200
4684.000000	5.049886
4682.000000	5.056852
4680.000000	5.063873
4678.000000	5.071469
4676.000000	5.078453
4674.000000	5.084844
4672.000000	5.092185
4670.000000	5.100235
4668.000000	5.108715
4666.000000	5.116776
4664.000000	5.124146
4662.000000	5.131069
4660.000000	5.138713
4658.000000	5.146484
4656.000000	5.153378
4654.000000	5.159613
4652.000000	5.166798
4650.000000	5.175216
4648.000000	5.182060
4646.000000	5.187342
4644.000000	5.193811
4642.000000	5.202746
4640.000000	5.211865
4638.000000	5.220533
4636.000000	5.227886
4634.000000	5.233460
4632.000000	5.238359
4630.000000	5.245346
4628.000000	5.253612
4626.000000	5.261013
4624.000000	5.267747
4622.000000	5.273948
4620.000000	5.280399
4618.000000	5.289038
4616.000000	5.298517
4614.000000	5.304925
4612.000000	5.308902
4610.000000	5.314470
4608.000000	5.322877
4606.000000	5.332378
4604.000000	5.340551
4602.000000	5.348053
4600.000000	5.356093
4598.000000	5.363939
4596.000000	5.370498
4594.000000	5.376817
4592.000000	5.383582
4590.000000	5.391660
4588.000000	5.400002
4586.000000	5.407069
4584.000000	5.413112
4582.000000	5.419559
4580.000000	5.427232
4578.000000	5.435488
4576.000000	5.442958
4574.000000	5.451250
4572.000000	5.460364
4570.000000	5.466606
4568.000000	5.472430
4566.000000	5.481562
4564.000000	5.489048
4562.000000	5.493636
4560.000000	5.499999
4558.000000	5.508241
4556.000000	5.515141
4554.000000	5.520652
4552.000000	5.526926
4550.000000	5.534948
4548.000000	5.542621
4546.000000	5.549219
4544.000000	5.556492
4542.000000	5.563891
4540.000000	5.570540
4538.000000	5.578124
4536.000000	5.586362
4534.000000	5.593533
4532.000000	5.599089
4530.000000	5.604830
4528.000000	5.611504
4526.000000	5.619186
4524.000000	5.627264
4522.000000	5.634789
4520.000000	5.641350
4518.000000	5.648210
4516.000000	5.655565
4514.000000	5.662079
4512.000000	5.667895
4510.000000	5.674965
4508.000000	5.683417
4506.000000	5.691972
4504.000000	5.699088
4502.000000	5.704928
4500.000000	5.711948
4498.000000	5.720621
4496.000000	5.728987
4494.000000	5.736694
4492.000000	5.744508
4490.000000	5.751270
4488.000000	5.756361
4486.000000	5.761396
4484.000000	5.769192
4482.000000	5.778846
4480.000000	5.787515
4478.000000	5.794358
4476.000000	5.800522
4474.000000	5.807455
4472.000000	5.814965
4470.000000	5.821602
4468.000000	5.827587
4466.000000	5.834492
4464.000000	5.842055
4462.000000	5.848924
4460.000000	5.854476
4458.000000	5.860237
4456.000000	5.866521
4454.000000	5.873026
4452.000000	5.879636
4450.000000	5.885902
4448.000000	5.892462
4446.000000	5.900237
4444.000000	5.906904
4442.000000	5.912789
4440.000000	5.920111
4438.000000	5.928692
4436.000000	5.936390
4434.000000	5.942447
4432.000000	5.947114
4430.000000	5.953199
4428.000000	5.960421
4426.000000	5.967947
4424.000000	5.976037
4422.000000	5.983361
4420.000000	5.988809
4418.000000	5.995130
4416.000000	6.001470
4414.000000	6.007332
4412.000000	6.013718
4410.000000	6.020119
4408.000000	6.026310
4406.000000	6.032577
4404.000000	6.038074
4402.000000	6.044420
4400.000000	6.052374
4398.000000	6.059800
4396.000000	6.067048
4394.000000	6.074844
4392.000000	6.082163
4390.000000	6.089345
4388.000000	6.096433
4386.000000	6.102735
4384.000000	6.108801
4382.000000	6.114657
4380.000000	6.119936
4378.000000	6.125370
4376.000000	6.131405
4374.000000	6.137809
4372.000000	6.142729
4370.000000	6.147048
4368.000000	6.151956
4366.000000	6.156996
4364.000000	6.163440
4362.000000	6.170847
4360.000000	6.177130
4358.000000	6.183996
4356.000000	6.191716
4354.000000	6.196970
4352.000000	6.200260
4350.000000	6.204592
4348.000000	6.210787
4346.000000	6.217565
4344.000000	6.223551
4342.000000	6.229670
4340.000000	6.236090
4338.000000	6.242096
4336.000000	6.248191
4334.000000	6.253245
4332.000000	6.257991
4330.000000	6.265797
4328.000000	6.273277
4326.000000	6.278355
4324.000000	6.284633
4322.000000	6.291869
4320.000000	6.297799
4318.000000	6.303804
4316.000000	6.309799
4314.000000	6.316280
4312.000000	6.323656
4310.000000	6.330256
4308.000000	6.335983
4306.000000	6.343270
4304.000000	6.350563
4302.000000	6.356394
4300.000000	6.361353
4298.000000	6.367391
4296.000000	6.374135
4294.000000	6.379741
4292.000000	6.384524
4290.000000	6.390709
4288.000000	6.396994
4286.000000	6.403446
4284.000000	6.410547
4282.000000	6.415833
4280.000000	6.418714
4278.000000	6.423466
4276.000000	6.429840
4274.000000	6.435576
4272.000000	6.441055
4270.000000	6.447105
4268.000000	6.452930
4266.000000	6.457642
4264.000000	6.461930
4262.000000	6.467773
4260.000000	6.474384
4258.000000	6.480702
4256.000000	6.486535
4254.000000	6.492138
4252.000000	6.498579
4250.000000	6.504610
4248.000000	6.509033
4246.000000	6.513992
4244.000000	6.520887
4242.000000	6.528832
4240.000000	6.535594
4238.000000	6.541713
4236.000000	6.548789
4234.000000	6.555123
4232.000000	6.560217
4230.000000	6.565898
4228.000000	6.571635
4226.000000	6.577166
4224.000000	6.582523
4222.000000	6.588281
4220.000000	6.595486
4218.000000	6.602872
4216.000000	6.608589
4214.000000	6.614346
