PE IR       SUBTECH     SPECTRUM    ASCII       PEDS        4.00        
   -1
TE109A_051_120K_BG.ASC
20/04/21
16:45:15.00
20/04/21
16:45:15.00
Administrator
TE109A, Tuesday, April 21 2020, 051.
1000.000000
#HDR
-1
-1
#GR
cm-1
EGY
1.0
0.0
6000.000000
-2.000000
2501
8
105.162146
10.915174
#DATA
6000.000000	16.076701
5998.000000	16.107400
5996.000000	16.137723
5994.000000	16.170058
5992.000000	16.204702
5990.000000	16.238604
5988.000000	16.272198
5986.000000	16.304951
5984.000000	16.336444
5982.000000	16.367787
5980.000000	16.398988
5978.000000	16.431446
5976.000000	16.464513
5974.000000	16.497587
5972.000000	16.530182
5970.000000	16.563194
5968.000000	16.597731
5966.000000	16.632284
5964.000000	16.666050
5962.000000	16.698646
5960.000000	16.732369
5958.000000	16.767140
5956.000000	16.799933
5954.000000	16.831835
5952.000000	16.865509
5950.000000	16.901114
5948.000000	16.936554
5946.000000	16.968572
5944.000000	16.999275
5942.000000	17.032411
5940.000000	17.066774
5938.000000	17.101120
5936.000000	17.134278
5934.000000	17.165894
5932.000000	17.198956
5930.000000	17.232860
5928.000000	17.267000
5926.000000	17.301569
5924.000000	17.336302
5922.000000	17.372471
5920.000000	17.408863
5918.000000	17.444825
5916.000000	17.478525
5914.000000	17.512823
5912.000000	17.548757
5910.000000	17.584827
5908.000000	17.621075
5906.000000	17.656087
5904.000000	17.691328
5902.000000	17.727851
5900.000000	17.764421
5898.000000	17.801247
5896.000000	17.837189
5894.000000	17.872212
5892.000000	17.907334
5890.000000	17.943094
5888.000000	17.978914
5886.000000	18.015088
5884.000000	18.050831
5882.000000	18.086782
5880.000000	18.122457
5878.000000	18.159088
5876.000000	18.195094
5874.000000	18.229978
5872.000000	18.264931
5870.000000	18.299921
5868.000000	18.335982
5866.000000	18.372881
5864.000000	18.410521
5862.000000	18.449079
5860.000000	18.487217
5858.000000	18.523484
5856.000000	18.559460
5854.000000	18.596462
5852.000000	18.634878
5850.000000	18.674676
5848.000000	18.713062
5846.000000	18.751681
5844.000000	18.790253
5842.000000	18.830020
5840.000000	18.871325
5838.000000	18.913400
5836.000000	18.954373
5834.000000	18.994981
5832.000000	19.035730
5830.000000	19.077332
5828.000000	19.118137
5826.000000	19.158997
5824.000000	19.201374
5822.000000	19.242895
5820.000000	19.282469
5818.000000	19.320625
5816.000000	19.360258
5814.000000	19.402081
5812.000000	19.443851
5810.000000	19.484715
5808.000000	19.524455
5806.000000	19.562432
5804.000000	19.600069
5802.000000	19.640823
5800.000000	19.681866
5798.000000	19.721878
5796.000000	19.761889
5794.000000	19.803336
5792.000000	19.846373
5790.000000	19.887128
5788.000000	19.927024
5786.000000	19.967167
5784.000000	20.007229
5782.000000	20.047481
5780.000000	20.088945
5778.000000	20.131634
5776.000000	20.173657
5774.000000	20.215417
5772.000000	20.256846
5770.000000	20.298243
5768.000000	20.339647
5766.000000	20.380341
5764.000000	20.422030
5762.000000	20.464556
5760.000000	20.506505
5758.000000	20.547891
5756.000000	20.587779
5754.000000	20.627849
5752.000000	20.669123
5750.000000	20.709983
5748.000000	20.750515
5746.000000	20.791025
5744.000000	20.832936
5742.000000	20.874764
5740.000000	20.915158
5738.000000	20.955072
5736.000000	20.995183
5734.000000	21.034498
5732.000000	21.073235
5730.000000	21.113688
5728.000000	21.155758
5726.000000	21.196818
5724.000000	21.236509
5722.000000	21.276490
5720.000000	21.318207
5718.000000	21.361052
5716.000000	21.404910
5714.000000	21.448152
5712.000000	21.492241
5710.000000	21.535110
5708.000000	21.577312
5706.000000	21.619272
5704.000000	21.662370
5702.000000	21.707779
5700.000000	21.752786
5698.000000	21.795980
5696.000000	21.839316
5694.000000	21.884841
5692.000000	21.930908
5690.000000	21.975517
5688.000000	22.019336
5686.000000	22.065460
5684.000000	22.111117
5682.000000	22.156112
5680.000000	22.200093
5678.000000	22.245607
5676.000000	22.291131
5674.000000	22.336283
5672.000000	22.380886
5670.000000	22.425411
5668.000000	22.469684
5666.000000	22.514384
5664.000000	22.559670
5662.000000	22.605613
5660.000000	22.651561
5658.000000	22.696154
5656.000000	22.739745
5654.000000	22.783331
5652.000000	22.827602
5650.000000	22.873503
5648.000000	22.919513
5646.000000	22.965537
5644.000000	23.011800
5642.000000	23.057872
5640.000000	23.102690
5638.000000	23.145381
5636.000000	23.187349
5634.000000	23.231848
5632.000000	23.278506
5630.000000	23.326133
5628.000000	23.372114
5626.000000	23.416719
5624.000000	23.460910
5622.000000	23.506488
5620.000000	23.551454
5618.000000	23.597037
5616.000000	23.642448
5614.000000	23.687475
5612.000000	23.731686
5610.000000	23.775365
5608.000000	23.820515
5606.000000	23.865461
5604.000000	23.909830
5602.000000	23.954988
5600.000000	24.001674
5598.000000	24.049169
5596.000000	24.095165
5594.000000	24.140610
5592.000000	24.185546
5590.000000	24.231241
5588.000000	24.277594
5586.000000	24.325210
5584.000000	24.372375
5582.000000	24.418999
5580.000000	24.465321
5578.000000	24.512426
5576.000000	24.560105
5574.000000	24.607412
5572.000000	24.653960
5570.000000	24.700256
5568.000000	24.746180
5566.000000	24.792913
5564.000000	24.841144
5562.000000	24.890050
5560.000000	24.937260
5558.000000	24.984315
5556.000000	25.030596
5554.000000	25.077608
5552.000000	25.125136
5550.000000	25.173472
5548.000000	25.221776
5546.000000	25.269069
5544.000000	25.316394
5542.000000	25.363393
5540.000000	25.408740
5538.000000	25.454643
5536.000000	25.501377
5534.000000	25.548490
5532.000000	25.595930
5530.000000	25.643667
5528.000000	25.691972
5526.000000	25.738203
5524.000000	25.783336
5522.000000	25.829030
5520.000000	25.876178
5518.000000	25.923318
5516.000000	25.970222
5514.000000	26.018406
5512.000000	26.066739
5510.000000	26.113313
5508.000000	26.158954
5506.000000	26.206532
5504.000000	26.254172
5502.000000	26.301617
5500.000000	26.349700
5498.000000	26.397074
5496.000000	26.440121
5494.000000	26.482337
5492.000000	26.528927
5490.000000	26.581565
5488.000000	26.635404
5486.000000	26.687614
5484.000000	26.738470
5482.000000	26.787773
5480.000000	26.832075
5478.000000	26.873636
5476.000000	26.918216
5474.000000	26.970502
5472.000000	27.023934
5470.000000	27.074701
5468.000000	27.122108
5466.000000	27.168213
5464.000000	27.213011
5462.000000	27.260355
5460.000000	27.311752
5458.000000	27.366042
5456.000000	27.419714
5454.000000	27.470045
5452.000000	27.515234
5450.000000	27.556545
5448.000000	27.597512
5446.000000	27.643012
5444.000000	27.690463
5442.000000	27.741704
5440.000000	27.793381
5438.000000	27.842280
5436.000000	27.889351
5434.000000	27.936064
5432.000000	27.982618
5430.000000	28.030882
5428.000000	28.083587
5426.000000	28.141831
5424.000000	28.197766
5422.000000	28.250189
5420.000000	28.299626
5418.000000	28.341463
5416.000000	28.375190
5414.000000	28.411453
5412.000000	28.459321
5410.000000	28.518759
5408.000000	28.579699
5406.000000	28.636650
5404.000000	28.689002
5402.000000	28.737841
5400.000000	28.784763
5398.000000	28.826772
5396.000000	28.865599
5394.000000	28.912549
5392.000000	28.970412
5390.000000	29.029234
5388.000000	29.077575
5386.000000	29.123383
5384.000000	29.175728
5382.000000	29.229640
5380.000000	29.274919
5378.000000	29.317268
5376.000000	29.366141
5374.000000	29.426367
5372.000000	29.487889
5370.000000	29.543987
5368.000000	29.592398
5366.000000	29.637197
5364.000000	29.684362
5362.000000	29.737806
5360.000000	29.791999
5358.000000	29.838156
5356.000000	29.876670
5354.000000	29.919851
5352.000000	29.970993
5350.000000	30.023701
5348.000000	30.067648
5346.000000	30.110036
5344.000000	30.158051
5342.000000	30.207358
5340.000000	30.255492
5338.000000	30.308145
5336.000000	30.369187
5334.000000	30.429268
5332.000000	30.480732
5330.000000	30.526692
5328.000000	30.574464
5326.000000	30.628382
5324.000000	30.687145
5322.000000	30.743964
5320.000000	30.796062
5318.000000	30.846202
5316.000000	30.895531
5314.000000	30.944353
5312.000000	30.991263
5310.000000	31.036652
5308.000000	31.084235
5306.000000	31.137052
5304.000000	31.192181
5302.000000	31.245288
5300.000000	31.296097
5298.000000	31.348305
5296.000000	31.399518
5294.000000	31.446319
5292.000000	31.490801
5290.000000	31.541653
5288.000000	31.596917
5286.000000	31.651333
5284.000000	31.702103
5282.000000	31.754949
5280.000000	31.808799
5278.000000	31.861592
5276.000000	31.913619
5274.000000	31.965385
5272.000000	32.015324
5270.000000	32.062750
5268.000000	32.106174
5266.000000	32.148835
5264.000000	32.198349
5262.000000	32.257868
5260.000000	32.318308
5258.000000	32.369835
5256.000000	32.417690
5254.000000	32.469132
5252.000000	32.519687
5250.000000	32.564466
5248.000000	32.609103
5246.000000	32.663665
5244.000000	32.725928
5242.000000	32.786089
5240.000000	32.840839
5238.000000	32.893139
5236.000000	32.944707
5234.000000	32.995045
5232.000000	33.044351
5230.000000	33.092412
5228.000000	33.136834
5226.000000	33.183928
5224.000000	33.239454
5222.000000	33.299888
5220.000000	33.355939
5218.000000	33.408399
5216.000000	33.461642
5214.000000	33.513588
5212.000000	33.559192
5210.000000	33.598999
5208.000000	33.642574
5206.000000	33.697660
5204.000000	33.760533
5202.000000	33.821787
5200.000000	33.874906
5198.000000	33.926451
5196.000000	33.981306
5194.000000	34.039326
5192.000000	34.094164
5190.000000	34.145369
5188.000000	34.195433
5186.000000	34.248187
5184.000000	34.303375
5182.000000	34.359695
5180.000000	34.415496
5178.000000	34.471103
5176.000000	34.526412
5174.000000	34.580346
5172.000000	34.632374
5170.000000	34.685772
5168.000000	34.740724
5166.000000	34.795039
5164.000000	34.846720
5162.000000	34.899385
5160.000000	34.953975
5158.000000	35.008355
5156.000000	35.061682
5154.000000	35.116956
5152.000000	35.174116
5150.000000	35.230322
5148.000000	35.283851
5146.000000	35.336747
5144.000000	35.389622
5142.000000	35.442095
5140.000000	35.494900
5138.000000	35.549783
5136.000000	35.602546
5134.000000	35.654146
5132.000000	35.706991
5130.000000	35.762222
5128.000000	35.817136
5126.000000	35.872088
5124.000000	35.927364
5122.000000	35.980561
5120.000000	36.033167
5118.000000	36.086769
5116.000000	36.140805
5114.000000	36.194521
5112.000000	36.247583
5110.000000	36.302933
5108.000000	36.359968
5106.000000	36.416556
5104.000000	36.470668
5102.000000	36.523930
5100.000000	36.576829
5098.000000	36.630880
5096.000000	36.687041
5094.000000	36.745251
5092.000000	36.801975
5090.000000	36.856713
5088.000000	36.910862
5086.000000	36.967471
5084.000000	37.026363
5082.000000	37.084449
5080.000000	37.139740
5078.000000	37.194584
5076.000000	37.249150
5074.000000	37.304274
5072.000000	37.360331
5070.000000	37.418258
5068.000000	37.475308
5066.000000	37.531588
5064.000000	37.586889
5062.000000	37.642291
5060.000000	37.698123
5058.000000	37.754725
5056.000000	37.811462
5054.000000	37.867212
5052.000000	37.921886
5050.000000	37.976732
5048.000000	38.032603
5046.000000	38.087917
5044.000000	38.142762
5042.000000	38.198772
5040.000000	38.253906
5038.000000	38.308409
5036.000000	38.363435
5034.000000	38.421168
5032.000000	38.478690
5030.000000	38.535058
5028.000000	38.589312
5026.000000	38.644291
5024.000000	38.700350
5022.000000	38.755975
5020.000000	38.810325
5018.000000	38.864241
5016.000000	38.917756
5014.000000	38.973734
5012.000000	39.031278
5010.000000	39.089623
5008.000000	39.147544
5006.000000	39.205057
5004.000000	39.261745
5002.000000	39.319093
5000.000000	39.375982
4998.000000	39.432793
4996.000000	39.490516
4994.000000	39.548972
4992.000000	39.605771
4990.000000	39.662788
4988.000000	39.719743
4986.000000	39.778122
4984.000000	39.837170
4982.000000	39.896377
4980.000000	39.953546
4978.000000	40.010389
4976.000000	40.067819
4974.000000	40.125548
4972.000000	40.180734
4970.000000	40.234772
4968.000000	40.292085
4966.000000	40.352590
4964.000000	40.411243
4962.000000	40.467540
4960.000000	40.523248
4958.000000	40.579574
4956.000000	40.635640
4954.000000	40.692306
4952.000000	40.750600
4950.000000	40.809379
4948.000000	40.866662
4946.000000	40.921722
4944.000000	40.976232
4942.000000	41.031731
4940.000000	41.088395
4938.000000	41.145294
4936.000000	41.200818
4934.000000	41.257305
4932.000000	41.314994
4930.000000	41.372792
4928.000000	41.426768
4926.000000	41.480637
4924.000000	41.537659
4922.000000	41.597946
4920.000000	41.657095
4918.000000	41.713606
4916.000000	41.768735
4914.000000	41.824121
4912.000000	41.881086
4910.000000	41.939845
4908.000000	41.998301
4906.000000	42.055931
4904.000000	42.113005
4902.000000	42.171341
4900.000000	42.229575
4898.000000	42.289693
4896.000000	42.350016
4894.000000	42.409067
4892.000000	42.467463
4890.000000	42.527909
4888.000000	42.587315
4886.000000	42.644937
4884.000000	42.702713
4882.000000	42.762132
4880.000000	42.821185
4878.000000	42.878643
4876.000000	42.935195
4874.000000	42.993384
4872.000000	43.052856
4870.000000	43.111572
4868.000000	43.170040
4866.000000	43.229385
4864.000000	43.287320
4862.000000	43.344280
4860.000000	43.401655
4858.000000	43.460832
4856.000000	43.518228
4854.000000	43.573682
4852.000000	43.629509
4850.000000	43.688992
4848.000000	43.748230
4846.000000	43.804672
4844.000000	43.861056
4842.000000	43.919655
4840.000000	43.976783
4838.000000	44.032013
4836.000000	44.088919
4834.000000	44.148002
4832.000000	44.206206
4830.000000	44.263768
4828.000000	44.320905
4826.000000	44.377068
4824.000000	44.434258
4822.000000	44.493069
4820.000000	44.551202
4818.000000	44.608439
4816.000000	44.667241
4814.000000	44.727373
4812.000000	44.784652
4810.000000	44.840940
4808.000000	44.899545
4806.000000	44.959797
4804.000000	45.018891
4802.000000	45.077985
4800.000000	45.137730
4798.000000	45.198927
4796.000000	45.260123
4794.000000	45.320162
4792.000000	45.379474
4790.000000	45.440949
4788.000000	45.502239
4786.000000	45.562301
4784.000000	45.622050
4782.000000	45.681579
4780.000000	45.739905
4778.000000	45.797770
4776.000000	45.857007
4774.000000	45.917294
4772.000000	45.977616
4770.000000	46.037492
4768.000000	46.096230
4766.000000	46.154936
4764.000000	46.214051
4762.000000	46.273131
4760.000000	46.331117
4758.000000	46.388338
4756.000000	46.445738
4754.000000	46.504233
4752.000000	46.562500
4750.000000	46.620514
4748.000000	46.677692
4746.000000	46.734965
4744.000000	46.791264
4742.000000	46.848414
4740.000000	46.906559
4738.000000	46.965988
4736.000000	47.024789
4734.000000	47.082845
4732.000000	47.140042
4730.000000	47.197714
4728.000000	47.256310
4726.000000	47.316502
4724.000000	47.376859
4722.000000	47.437303
4720.000000	47.496876
4718.000000	47.556037
4716.000000	47.615517
4714.000000	47.676651
4712.000000	47.738752
4710.000000	47.801356
4708.000000	47.863534
4706.000000	47.925571
4704.000000	47.987774
4702.000000	48.051112
4700.000000	48.114208
4698.000000	48.176793
4696.000000	48.237838
4694.000000	48.298737
4692.000000	48.359305
4690.000000	48.420927
4688.000000	48.481637
4686.000000	48.542325
4684.000000	48.602919
4682.000000	48.663308
4680.000000	48.723262
4678.000000	48.785206
4676.000000	48.847587
4674.000000	48.908735
4672.000000	48.969276
4670.000000	49.029874
4668.000000	49.089866
4666.000000	49.150764
4664.000000	49.211822
4662.000000	49.272920
4660.000000	49.332690
4658.000000	49.392038
4656.000000	49.453138
4654.000000	49.516008
4652.000000	49.576198
4650.000000	49.635262
4648.000000	49.696402
4646.000000	49.758180
4644.000000	49.818477
4642.000000	49.879976
4640.000000	49.942021
4638.000000	50.002832
4636.000000	50.061853
4634.000000	50.121479
4632.000000	50.183283
4630.000000	50.245549
4628.000000	50.305285
4626.000000	50.365332
4624.000000	50.426689
4622.000000	50.487911
4620.000000	50.549461
4618.000000	50.611405
4616.000000	50.671497
4614.000000	50.733392
4612.000000	50.798286
4610.000000	50.864191
4608.000000	50.929752
4606.000000	50.994889
4604.000000	51.059250
4602.000000	51.124046
4600.000000	51.189546
4598.000000	51.254749
4596.000000	51.317970
4594.000000	51.379846
4592.000000	51.442114
4590.000000	51.507177
4588.000000	51.573472
4586.000000	51.638453
4584.000000	51.701746
4582.000000	51.766155
4580.000000	51.828995
4578.000000	51.890588
4576.000000	51.952892
4574.000000	52.017330
4572.000000	52.080815
4570.000000	52.143923
4568.000000	52.206906
4566.000000	52.270192
4564.000000	52.332827
4562.000000	52.395214
4560.000000	52.458232
4558.000000	52.522846
4556.000000	52.587549
4554.000000	52.650462
4552.000000	52.711651
4550.000000	52.772899
4548.000000	52.833505
4546.000000	52.893892
4544.000000	52.954738
4542.000000	53.018062
4540.000000	53.083004
4538.000000	53.147607
4536.000000	53.209377
4534.000000	53.271513
4532.000000	53.335338
4530.000000	53.398527
4528.000000	53.459373
4526.000000	53.520745
4524.000000	53.583787
4522.000000	53.648038
4520.000000	53.712210
4518.000000	53.777534
4516.000000	53.843581
4514.000000	53.909966
4512.000000	53.975136
4510.000000	54.039512
4508.000000	54.103429
4506.000000	54.167909
4504.000000	54.232014
4502.000000	54.296314
4500.000000	54.361805
4498.000000	54.429454
4496.000000	54.496126
4494.000000	54.559827
4492.000000	54.622922
4490.000000	54.688281
4488.000000	54.753774
4486.000000	54.818447
4484.000000	54.882433
4482.000000	54.947335
4480.000000	55.012279
4478.000000	55.076529
4476.000000	55.139273
4474.000000	55.202260
4472.000000	55.264314
4470.000000	55.326665
4468.000000	55.389885
4466.000000	55.452582
4464.000000	55.513894
4462.000000	55.576837
4460.000000	55.640223
4458.000000	55.701487
4456.000000	55.761263
4454.000000	55.822657
4452.000000	55.885513
4450.000000	55.947609
4448.000000	56.008943
4446.000000	56.072208
4444.000000	56.135866
4442.000000	56.198092
4440.000000	56.258933
4438.000000	56.320747
4436.000000	56.383335
4434.000000	56.445886
4432.000000	56.507993
4430.000000	56.572314
4428.000000	56.637351
4426.000000	56.700873
4424.000000	56.763302
4422.000000	56.826930
4420.000000	56.890112
4418.000000	56.952846
4416.000000	57.015736
4414.000000	57.078843
4412.000000	57.142991
4410.000000	57.209305
4408.000000	57.274913
4406.000000	57.339534
4404.000000	57.403360
4402.000000	57.467145
4400.000000	57.530994
4398.000000	57.595370
4396.000000	57.659204
4394.000000	57.723137
4392.000000	57.785887
4390.000000	57.848196
4388.000000	57.909708
4386.000000	57.970346
4384.000000	58.031300
4382.000000	58.093278
4380.000000	58.154540
4378.000000	58.216669
4376.000000	58.278179
4374.000000	58.336393
4372.000000	58.393301
4370.000000	58.452668
4368.000000	58.512742
4366.000000	58.572425
4364.000000	58.632855
4362.000000	58.695150
4360.000000	58.755808
4358.000000	58.816459
4356.000000	58.879220
4354.000000	58.943396
4352.000000	59.006683
4350.000000	59.069754
4348.000000	59.132727
4346.000000	59.196739
4344.000000	59.260152
4342.000000	59.322839
4340.000000	59.384728
4338.000000	59.447299
4336.000000	59.511938
4334.000000	59.578429
4332.000000	59.642327
4330.000000	59.705113
4328.000000	59.769815
4326.000000	59.834908
4324.000000	59.899114
4322.000000	59.966189
4320.000000	60.034693
4318.000000	60.102253
4316.000000	60.168521
4314.000000	60.235407
4312.000000	60.302638
4310.000000	60.369983
4308.000000	60.436542
4306.000000	60.502782
4304.000000	60.568697
4302.000000	60.635678
4300.000000	60.701577
4298.000000	60.765075
4296.000000	60.828271
4294.000000	60.894005
4292.000000	60.960169
