PE IR       SUBTECH     SPECTRUM    ASCII       PEDS        4.00        
   -1
TE110A_076_80K_AFTER_130K_BG.ASC
20/05/14
15:21:44.00
20/05/14
15:21:44.00
Administrator
TE110A.Thursday, May 14 2020, 007.
1000.000000
#HDR
-1
-1
#GR
cm-1
EGY
1.0
0.0
6000.000000
-2.000000
2501
8
105.180987
11.087337
#DATA
6000.000000	16.378962
5998.000000	16.412200
5996.000000	16.444625
5994.000000	16.476263
5992.000000	16.507692
5990.000000	16.539982
5988.000000	16.572695
5986.000000	16.605891
5984.000000	16.637514
5982.000000	16.669472
5980.000000	16.701558
5978.000000	16.734940
5976.000000	16.769042
5974.000000	16.801834
5972.000000	16.834303
5970.000000	16.868167
5968.000000	16.902330
5966.000000	16.936371
5964.000000	16.968758
5962.000000	17.000520
5960.000000	17.033941
5958.000000	17.068873
5956.000000	17.102850
5954.000000	17.135673
5952.000000	17.167508
5950.000000	17.200831
5948.000000	17.234367
5946.000000	17.267971
5944.000000	17.300378
5942.000000	17.333365
5940.000000	17.366051
5938.000000	17.399262
5936.000000	17.431978
5934.000000	17.465556
5932.000000	17.499187
5930.000000	17.533349
5928.000000	17.567599
5926.000000	17.601693
5924.000000	17.635661
5922.000000	17.670006
5920.000000	17.704853
5918.000000	17.740520
5916.000000	17.776237
5914.000000	17.811373
5912.000000	17.846101
5910.000000	17.882196
5908.000000	17.918099
5906.000000	17.954444
5904.000000	17.989543
5902.000000	18.024495
5900.000000	18.059694
5898.000000	18.096109
5896.000000	18.131206
5894.000000	18.166039
5892.000000	18.201058
5890.000000	18.237711
5888.000000	18.275172
5886.000000	18.311013
5884.000000	18.345576
5882.000000	18.381472
5880.000000	18.416215
5878.000000	18.451884
5876.000000	18.486761
5874.000000	18.522129
5872.000000	18.557609
5870.000000	18.593204
5868.000000	18.629888
5866.000000	18.667118
5864.000000	18.702941
5862.000000	18.739396
5860.000000	18.776006
5858.000000	18.814036
5856.000000	18.850509
5854.000000	18.887198
5852.000000	18.924079
5850.000000	18.962522
5848.000000	19.001696
5846.000000	19.041591
5844.000000	19.080630
5842.000000	19.119760
5840.000000	19.158107
5838.000000	19.197290
5836.000000	19.236891
5834.000000	19.278398
5832.000000	19.320271
5830.000000	19.362334
5828.000000	19.403032
5826.000000	19.443447
5824.000000	19.484314
5822.000000	19.524952
5820.000000	19.564980
5818.000000	19.605553
5816.000000	19.645938
5814.000000	19.685869
5812.000000	19.724705
5810.000000	19.763717
5808.000000	19.802782
5806.000000	19.842635
5804.000000	19.881434
5802.000000	19.921341
5800.000000	19.960868
5798.000000	20.000526
5796.000000	20.040884
5794.000000	20.082438
5792.000000	20.124251
5790.000000	20.165305
5788.000000	20.204609
5786.000000	20.244195
5784.000000	20.284008
5782.000000	20.325331
5780.000000	20.366510
5778.000000	20.407774
5776.000000	20.448357
5774.000000	20.489743
5772.000000	20.530462
5770.000000	20.572137
5768.000000	20.613371
5766.000000	20.654477
5764.000000	20.695458
5762.000000	20.736530
5760.000000	20.777700
5758.000000	20.818968
5756.000000	20.859357
5754.000000	20.900978
5752.000000	20.941998
5750.000000	20.982609
5748.000000	21.022473
5746.000000	21.063260
5744.000000	21.104380
5742.000000	21.145120
5740.000000	21.184672
5738.000000	21.224460
5736.000000	21.263684
5734.000000	21.303432
5732.000000	21.342243
5730.000000	21.381767
5728.000000	21.420621
5726.000000	21.461209
5724.000000	21.501658
5722.000000	21.542919
5720.000000	21.584673
5718.000000	21.627606
5716.000000	21.670449
5714.000000	21.712748
5712.000000	21.755460
5710.000000	21.798902
5708.000000	21.841071
5706.000000	21.882885
5704.000000	21.925316
5702.000000	21.969939
5700.000000	22.014511
5698.000000	22.058623
5696.000000	22.102516
5694.000000	22.146601
5692.000000	22.190456
5690.000000	22.234466
5688.000000	22.279406
5686.000000	22.325154
5684.000000	22.369721
5682.000000	22.413956
5680.000000	22.457436
5678.000000	22.502170
5676.000000	22.546211
5674.000000	22.591760
5672.000000	22.637258
5670.000000	22.682017
5668.000000	22.725638
5666.000000	22.770208
5664.000000	22.815021
5662.000000	22.859822
5660.000000	22.904194
5658.000000	22.949658
5656.000000	22.994540
5654.000000	23.039192
5652.000000	23.082568
5650.000000	23.126501
5648.000000	23.170998
5646.000000	23.216385
5644.000000	23.261591
5642.000000	23.306920
5640.000000	23.351231
5638.000000	23.396341
5636.000000	23.441124
5634.000000	23.486959
5632.000000	23.531243
5630.000000	23.574936
5628.000000	23.619090
5626.000000	23.665195
5624.000000	23.710320
5622.000000	23.753955
5620.000000	23.797325
5618.000000	23.842208
5616.000000	23.887872
5614.000000	23.933641
5612.000000	23.978413
5610.000000	24.023379
5608.000000	24.067564
5606.000000	24.112612
5604.000000	24.157665
5602.000000	24.202782
5600.000000	24.247701
5598.000000	24.292506
5596.000000	24.337675
5594.000000	24.384148
5592.000000	24.430576
5590.000000	24.476739
5588.000000	24.521183
5586.000000	24.566517
5584.000000	24.612423
5582.000000	24.659525
5580.000000	24.706785
5578.000000	24.754282
5576.000000	24.801423
5574.000000	24.847338
5572.000000	24.892996
5570.000000	24.940770
5568.000000	24.988871
5566.000000	25.037010
5564.000000	25.082886
5562.000000	25.129426
5560.000000	25.176270
5558.000000	25.223103
5556.000000	25.268300
5554.000000	25.313094
5552.000000	25.357485
5550.000000	25.405000
5548.000000	25.453808
5546.000000	25.503512
5544.000000	25.551004
5542.000000	25.597070
5540.000000	25.642021
5538.000000	25.688138
5536.000000	25.733555
5534.000000	25.781007
5532.000000	25.828509
5530.000000	25.876751
5528.000000	25.923961
5526.000000	25.969494
5524.000000	26.015470
5522.000000	26.061734
5520.000000	26.107377
5518.000000	26.154091
5516.000000	26.201530
5514.000000	26.250764
5512.000000	26.297424
5510.000000	26.341128
5508.000000	26.385113
5506.000000	26.432687
5504.000000	26.482261
5502.000000	26.531013
5500.000000	26.577567
5498.000000	26.623147
5496.000000	26.663827
5494.000000	26.703722
5492.000000	26.746508
5490.000000	26.797104
5488.000000	26.852244
5486.000000	26.908935
5484.000000	26.964046
5482.000000	27.015716
5480.000000	27.057686
5478.000000	27.092614
5476.000000	27.132481
5474.000000	27.184790
5472.000000	27.242664
5470.000000	27.294243
5468.000000	27.340179
5466.000000	27.385760
5464.000000	27.429495
5462.000000	27.476192
5460.000000	27.527924
5458.000000	27.584246
5456.000000	27.638999
5454.000000	27.688102
5452.000000	27.731134
5450.000000	27.768806
5448.000000	27.805476
5446.000000	27.848206
5444.000000	27.893553
5442.000000	27.945940
5440.000000	27.999955
5438.000000	28.050287
5436.000000	28.096891
5434.000000	28.142516
5432.000000	28.186909
5430.000000	28.232657
5428.000000	28.286948
5426.000000	28.351930
5424.000000	28.414316
5422.000000	28.469036
5420.000000	28.516875
5418.000000	28.552355
5416.000000	28.576142
5414.000000	28.604856
5412.000000	28.650979
5410.000000	28.716540
5408.000000	28.784002
5406.000000	28.845656
5404.000000	28.899827
5402.000000	28.951590
5400.000000	28.997231
5398.000000	29.033836
5396.000000	29.066563
5394.000000	29.113025
5392.000000	29.173974
5390.000000	29.235351
5388.000000	29.282730
5386.000000	29.327550
5384.000000	29.381579
5382.000000	29.437837
5380.000000	29.478203
5378.000000	29.512671
5376.000000	29.559948
5374.000000	29.625948
5372.000000	29.694126
5370.000000	29.753459
5368.000000	29.802340
5366.000000	29.847053
5364.000000	29.894295
5362.000000	29.948288
5360.000000	30.002303
5358.000000	30.045004
5356.000000	30.075051
5354.000000	30.111875
5352.000000	30.163135
5350.000000	30.218619
5348.000000	30.257622
5346.000000	30.294108
5344.000000	30.342745
5342.000000	30.395632
5340.000000	30.442592
5338.000000	30.493638
5336.000000	30.557391
5334.000000	30.624108
5332.000000	30.678894
5330.000000	30.724003
5328.000000	30.771012
5326.000000	30.828679
5324.000000	30.892606
5322.000000	30.951235
5320.000000	31.001746
5318.000000	31.051176
5316.000000	31.101604
5314.000000	31.153303
5312.000000	31.200905
5310.000000	31.242936
5308.000000	31.286065
5306.000000	31.338257
5304.000000	31.395855
5302.000000	31.451103
5300.000000	31.503258
5298.000000	31.556373
5296.000000	31.607772
5294.000000	31.651371
5292.000000	31.691293
5290.000000	31.739283
5288.000000	31.794906
5286.000000	31.851959
5284.000000	31.904461
5282.000000	31.957691
5280.000000	32.011970
5278.000000	32.067621
5276.000000	32.122261
5274.000000	32.174386
5272.000000	32.222341
5270.000000	32.267885
5268.000000	32.306121
5266.000000	32.341030
5264.000000	32.384293
5262.000000	32.446301
5260.000000	32.514235
5258.000000	32.569467
5256.000000	32.614488
5254.000000	32.664048
5252.000000	32.712748
5250.000000	32.754523
5248.000000	32.795466
5246.000000	32.849429
5244.000000	32.915172
5242.000000	32.982220
5240.000000	33.044212
5238.000000	33.098515
5236.000000	33.147183
5234.000000	33.194199
5232.000000	33.241563
5230.000000	33.287625
5228.000000	33.328948
5226.000000	33.374933
5224.000000	33.431791
5222.000000	33.495252
5220.000000	33.553319
5218.000000	33.608580
5216.000000	33.663721
5214.000000	33.716931
5212.000000	33.759286
5210.000000	33.790216
5208.000000	33.824096
5206.000000	33.880410
5204.000000	33.953369
5202.000000	34.023722
5200.000000	34.078231
5198.000000	34.127833
5196.000000	34.181203
5194.000000	34.239257
5192.000000	34.294991
5190.000000	34.347003
5188.000000	34.395092
5186.000000	34.445014
5184.000000	34.499030
5182.000000	34.557640
5180.000000	34.614970
5178.000000	34.671354
5176.000000	34.726691
5174.000000	34.780732
5172.000000	34.833453
5170.000000	34.888911
5168.000000	34.944237
5166.000000	34.997420
5164.000000	35.048424
5162.000000	35.102131
5160.000000	35.156628
5158.000000	35.210466
5156.000000	35.264198
5154.000000	35.320218
5152.000000	35.375575
5150.000000	35.429670
5148.000000	35.483389
5146.000000	35.537582
5144.000000	35.591312
5142.000000	35.646509
5140.000000	35.701263
5138.000000	35.755493
5136.000000	35.807694
5134.000000	35.861308
5132.000000	35.915312
5130.000000	35.970706
5128.000000	36.024691
5126.000000	36.077484
5124.000000	36.129803
5122.000000	36.182935
5120.000000	36.235669
5118.000000	36.290271
5116.000000	36.346279
5114.000000	36.401930
5112.000000	36.455792
5110.000000	36.510502
5108.000000	36.565141
5106.000000	36.619996
5104.000000	36.674891
5102.000000	36.730890
5100.000000	36.785076
5098.000000	36.838892
5096.000000	36.893731
5094.000000	36.951163
5092.000000	37.008569
5090.000000	37.065195
5088.000000	37.120642
5086.000000	37.177376
5084.000000	37.233431
5082.000000	37.289756
5080.000000	37.345700
5078.000000	37.402500
5076.000000	37.458461
5074.000000	37.514362
5072.000000	37.570114
5070.000000	37.625905
5068.000000	37.681671
5066.000000	37.739085
5064.000000	37.795840
5062.000000	37.852503
5060.000000	37.908573
5058.000000	37.966037
5056.000000	38.021609
5054.000000	38.076084
5052.000000	38.130317
5050.000000	38.186272
5048.000000	38.242633
5046.000000	38.298913
5044.000000	38.353921
5042.000000	38.408938
5040.000000	38.464304
5038.000000	38.521142
5036.000000	38.576813
5034.000000	38.632186
5032.000000	38.686877
5030.000000	38.743096
5028.000000	38.799006
5026.000000	38.854717
5024.000000	38.909898
5022.000000	38.966401
5020.000000	39.023009
5018.000000	39.078872
5016.000000	39.133463
5014.000000	39.188964
5012.000000	39.244830
5010.000000	39.302383
5008.000000	39.360326
5006.000000	39.418739
5004.000000	39.475704
5002.000000	39.533068
5000.000000	39.590646
4998.000000	39.648954
4996.000000	39.705105
4994.000000	39.761538
4992.000000	39.818495
4990.000000	39.877789
4988.000000	39.936017
4986.000000	39.993890
4984.000000	40.050980
4982.000000	40.109387
4980.000000	40.167061
4978.000000	40.224738
4976.000000	40.281910
4974.000000	40.340046
4972.000000	40.397708
4970.000000	40.455967
4968.000000	40.513191
4966.000000	40.570966
4964.000000	40.628771
4962.000000	40.686753
4960.000000	40.743404
4958.000000	40.800514
4956.000000	40.856611
4954.000000	40.913162
4952.000000	40.969682
4950.000000	41.026845
4948.000000	41.083341
4946.000000	41.140758
4944.000000	41.197597
4942.000000	41.253778
4940.000000	41.308387
4938.000000	41.364584
4936.000000	41.422258
4934.000000	41.480958
4932.000000	41.536960
4930.000000	41.592343
4928.000000	41.647892
4926.000000	41.705021
4924.000000	41.762411
4922.000000	41.820653
4920.000000	41.878055
4918.000000	41.935394
4916.000000	41.992265
4914.000000	42.049338
4912.000000	42.105689
4910.000000	42.164329
4908.000000	42.223812
4906.000000	42.282477
4904.000000	42.338951
4902.000000	42.396955
4900.000000	42.455903
4898.000000	42.515056
4896.000000	42.573778
4894.000000	42.634327
4892.000000	42.694489
4890.000000	42.753925
4888.000000	42.811370
4886.000000	42.869068
4884.000000	42.927400
4882.000000	42.987419
4880.000000	43.047268
4878.000000	43.107860
4876.000000	43.168040
4874.000000	43.227235
4872.000000	43.284176
4870.000000	43.341323
4868.000000	43.398321
4866.000000	43.457030
4864.000000	43.516506
4862.000000	43.576408
4860.000000	43.634083
4858.000000	43.691258
4856.000000	43.748017
4854.000000	43.806447
4852.000000	43.864394
4850.000000	43.922232
4848.000000	43.979680
4846.000000	44.038822
4844.000000	44.096670
4842.000000	44.152887
4840.000000	44.209107
4838.000000	44.267265
4836.000000	44.325013
4834.000000	44.382707
4832.000000	44.439697
4830.000000	44.496994
4828.000000	44.554431
4826.000000	44.613088
4824.000000	44.670674
4822.000000	44.728521
4820.000000	44.786206
4818.000000	44.845371
4816.000000	44.904775
4814.000000	44.964528
4812.000000	45.022691
4810.000000	45.081680
4808.000000	45.141188
4806.000000	45.201588
4804.000000	45.261275
4802.000000	45.321049
4800.000000	45.380414
4798.000000	45.441391
4796.000000	45.501842
4794.000000	45.562362
4792.000000	45.622195
4790.000000	45.683245
4788.000000	45.743028
4786.000000	45.802563
4784.000000	45.862338
4782.000000	45.924020
4780.000000	45.984426
4778.000000	46.044103
4776.000000	46.102459
4774.000000	46.161042
4772.000000	46.219561
4770.000000	46.279397
4768.000000	46.338959
4766.000000	46.399372
4764.000000	46.458733
4762.000000	46.517446
4760.000000	46.576089
4758.000000	46.635956
4756.000000	46.694691
4754.000000	46.753418
4752.000000	46.811087
4750.000000	46.868441
4748.000000	46.925751
4746.000000	46.984871
4744.000000	47.043221
4742.000000	47.101567
4740.000000	47.159814
4738.000000	47.218056
4736.000000	47.274299
4734.000000	47.331783
4732.000000	47.390300
4730.000000	47.449207
4728.000000	47.507297
4726.000000	47.567383
4724.000000	47.628111
4722.000000	47.689230
4720.000000	47.749252
4718.000000	47.809703
4716.000000	47.869738
4714.000000	47.931183
4712.000000	47.992725
4710.000000	48.054961
4708.000000	48.116993
4706.000000	48.180473
4704.000000	48.243678
4702.000000	48.306920
4700.000000	48.369088
4698.000000	48.432154
4696.000000	48.495290
4694.000000	48.557848
4692.000000	48.618410
4690.000000	48.679406
4688.000000	48.740523
4686.000000	48.801677
4684.000000	48.862052
4682.000000	48.923625
4680.000000	48.984146
4678.000000	49.044748
4676.000000	49.106015
4674.000000	49.168754
4672.000000	49.229727
4670.000000	49.291185
4668.000000	49.353034
4666.000000	49.415267
4664.000000	49.475770
4662.000000	49.536665
4660.000000	49.597018
4658.000000	49.658439
4656.000000	49.719406
4654.000000	49.780098
4652.000000	49.839514
4650.000000	49.901106
4648.000000	49.962211
4646.000000	50.023058
4644.000000	50.083881
4642.000000	50.146847
4640.000000	50.208512
4638.000000	50.269114
4636.000000	50.329416
4634.000000	50.391654
4632.000000	50.453018
4630.000000	50.514085
4628.000000	50.574313
4626.000000	50.635297
4624.000000	50.695999
4622.000000	50.758077
4620.000000	50.819724
4618.000000	50.882490
4616.000000	50.946006
4614.000000	51.011230
4612.000000	51.075186
4610.000000	51.138737
4608.000000	51.202471
4606.000000	51.267970
4604.000000	51.333272
4602.000000	51.398741
4600.000000	51.463033
4598.000000	51.528341
4596.000000	51.593980
4594.000000	51.659479
4592.000000	51.723086
4590.000000	51.787390
4588.000000	51.851307
4586.000000	51.916325
4584.000000	51.981162
4582.000000	52.046070
4580.000000	52.109468
4578.000000	52.173350
4576.000000	52.236339
4574.000000	52.299598
4572.000000	52.362854
4570.000000	52.427483
4568.000000	52.491434
4566.000000	52.556037
4564.000000	52.619703
4562.000000	52.682658
4560.000000	52.744853
4558.000000	52.808330
4556.000000	52.870842
4554.000000	52.933888
4552.000000	52.997215
4550.000000	53.061776
4548.000000	53.124874
4546.000000	53.187336
4544.000000	53.248760
4542.000000	53.310260
4540.000000	53.370915
4538.000000	53.433798
4536.000000	53.498263
4534.000000	53.562887
4532.000000	53.625352
4530.000000	53.688349
4528.000000	53.751190
4526.000000	53.814370
4524.000000	53.877997
4522.000000	53.943300
4520.000000	54.007033
4518.000000	54.070890
4516.000000	54.135250
4514.000000	54.201032
4512.000000	54.265927
4510.000000	54.331109
4508.000000	54.395520
4506.000000	54.460333
4504.000000	54.525927
4502.000000	54.593890
4500.000000	54.660702
4498.000000	54.726264
4496.000000	54.791195
4494.000000	54.857232
4492.000000	54.922240
4490.000000	54.986659
4488.000000	55.050411
4486.000000	55.115936
4484.000000	55.181577
4482.000000	55.246501
4480.000000	55.309622
4478.000000	55.373451
4476.000000	55.437123
4474.000000	55.501994
4472.000000	55.566114
4470.000000	55.629406
4468.000000	55.691188
4466.000000	55.754188
4464.000000	55.817074
4462.000000	55.880276
4460.000000	55.942308
4458.000000	56.005777
4456.000000	56.068623
4454.000000	56.130248
4452.000000	56.190833
4450.000000	56.253205
4448.000000	56.316106
4446.000000	56.379499
4444.000000	56.442038
4442.000000	56.505818
4440.000000	56.569034
4438.000000	56.631542
4436.000000	56.693321
4434.000000	56.755877
4432.000000	56.818661
4430.000000	56.882854
4428.000000	56.945953
4426.000000	57.009071
4424.000000	57.071652
4422.000000	57.134795
4420.000000	57.198895
4418.000000	57.264835
4416.000000	57.329981
4414.000000	57.394704
4412.000000	57.457942
4410.000000	57.521573
4408.000000	57.586327
4406.000000	57.652169
4404.000000	57.716501
4402.000000	57.780677
4400.000000	57.844243
4398.000000	57.908223
4396.000000	57.972319
4394.000000	58.036827
4392.000000	58.099475
4390.000000	58.162240
4388.000000	58.224448
4386.000000	58.286618
4384.000000	58.348389
4382.000000	58.410643
4380.000000	58.470718
4378.000000	58.531234
4376.000000	58.592374
4374.000000	58.653468
4372.000000	58.713879
4370.000000	58.775591
4368.000000	58.835733
4366.000000	58.895335
4364.000000	58.954680
4362.000000	59.015594
4360.000000	59.077265
4358.000000	59.140240
4356.000000	59.203054
4354.000000	59.266482
4352.000000	59.328743
4350.000000	59.392310
4348.000000	59.455495
4346.000000	59.518285
4344.000000	59.581421
4342.000000	59.646391
4340.000000	59.709929
4338.000000	59.773161
4336.000000	59.835056
4334.000000	59.898126
4332.000000	59.963300
4330.000000	60.029860
4328.000000	60.094838
4326.000000	60.159697
4324.000000	60.224776
4322.000000	60.292169
4320.000000	60.359956
4318.000000	60.428584
4316.000000	60.496879
4314.000000	60.564337
4312.000000	60.631029
4310.000000	60.699342
4308.000000	60.766441
4306.000000	60.832743
4304.000000	60.897904
4302.000000	60.964055
4300.000000	61.030810
4298.000000	61.098325
4296.000000	61.164250
4294.000000	61.228403
4292.000000	61.291050
