PE IR       SUBTECH     SPECTRUM    ASCII       PEDS        4.00        
   -1
TE110A_064_125K_BG.ASC
20/05/14
14:41:07.00
20/05/14
14:41:07.00
Administrator
TE110A.Thursday, May 14 2020, 012.
1000.000000
#HDR
-1
-1
#GR
cm-1
EGY
1.0
0.0
6000.000000
-2.000000
2501
8
105.652710
11.029404
#DATA
6000.000000	16.783056
5998.000000	16.815718
5996.000000	16.848566
5994.000000	16.881604
5992.000000	16.914007
5990.000000	16.947350
5988.000000	16.980988
5986.000000	17.015190
5984.000000	17.049129
5982.000000	17.082798
5980.000000	17.116628
5978.000000	17.150302
5976.000000	17.182853
5974.000000	17.216920
5972.000000	17.250978
5970.000000	17.285405
5968.000000	17.319375
5966.000000	17.353598
5964.000000	17.387872
5962.000000	17.421853
5960.000000	17.456545
5958.000000	17.491662
5956.000000	17.527449
5954.000000	17.562206
5952.000000	17.595974
5950.000000	17.629653
5948.000000	17.663406
5946.000000	17.697288
5944.000000	17.731432
5942.000000	17.765253
5940.000000	17.799308
5938.000000	17.833352
5936.000000	17.867586
5934.000000	17.901563
5932.000000	17.935598
5930.000000	17.970833
5928.000000	18.005901
5926.000000	18.041210
5924.000000	18.075606
5922.000000	18.110919
5920.000000	18.147716
5918.000000	18.184657
5916.000000	18.221592
5914.000000	18.259000
5912.000000	18.295455
5910.000000	18.331830
5908.000000	18.368122
5906.000000	18.405131
5904.000000	18.442509
5902.000000	18.479368
5900.000000	18.515955
5898.000000	18.551543
5896.000000	18.586334
5894.000000	18.622276
5892.000000	18.659936
5890.000000	18.698121
5888.000000	18.735948
5886.000000	18.772482
5884.000000	18.807908
5882.000000	18.842487
5880.000000	18.876293
5878.000000	18.912685
5876.000000	18.950128
5874.000000	18.988982
5872.000000	19.027551
5870.000000	19.065375
5868.000000	19.102042
5866.000000	19.139084
5864.000000	19.176333
5862.000000	19.214816
5860.000000	19.252696
5858.000000	19.290605
5856.000000	19.328343
5854.000000	19.365752
5852.000000	19.403614
5850.000000	19.443162
5848.000000	19.483841
5846.000000	19.524116
5844.000000	19.563457
5842.000000	19.602749
5840.000000	19.643220
5838.000000	19.685004
5836.000000	19.727566
5834.000000	19.771329
5832.000000	19.814302
5830.000000	19.856687
5828.000000	19.898017
5826.000000	19.939076
5824.000000	19.980827
5822.000000	20.023111
5820.000000	20.064882
5818.000000	20.106115
5816.000000	20.146608
5814.000000	20.186586
5812.000000	20.226904
5810.000000	20.267133
5808.000000	20.307626
5806.000000	20.349908
5804.000000	20.392115
5802.000000	20.434119
5800.000000	20.474824
5798.000000	20.516461
5796.000000	20.558297
5794.000000	20.598457
5792.000000	20.637530
5790.000000	20.678279
5788.000000	20.721058
5786.000000	20.764832
5784.000000	20.807120
5782.000000	20.847786
5780.000000	20.887597
5778.000000	20.929144
5776.000000	20.972692
5774.000000	21.017064
5772.000000	21.059796
5770.000000	21.101447
5768.000000	21.142868
5766.000000	21.185150
5764.000000	21.228280
5762.000000	21.270898
5760.000000	21.313227
5758.000000	21.355542
5756.000000	21.397150
5754.000000	21.438755
5752.000000	21.479410
5750.000000	21.521199
5748.000000	21.562915
5746.000000	21.604775
5744.000000	21.646742
5742.000000	21.688841
5740.000000	21.730643
5738.000000	21.771382
5736.000000	21.811651
5734.000000	21.852266
5732.000000	21.893796
5730.000000	21.935882
5728.000000	21.977407
5726.000000	22.017887
5724.000000	22.058558
5722.000000	22.099925
5720.000000	22.141932
5718.000000	22.184527
5716.000000	22.227863
5714.000000	22.273174
5712.000000	22.318577
5710.000000	22.363066
5708.000000	22.406294
5706.000000	22.450374
5704.000000	22.495585
5702.000000	22.540659
5700.000000	22.585643
5698.000000	22.630999
5696.000000	22.676692
5694.000000	22.721871
5692.000000	22.766475
5690.000000	22.812010
5688.000000	22.857686
5686.000000	22.902753
5684.000000	22.947583
5682.000000	22.992845
5680.000000	23.039335
5678.000000	23.086738
5676.000000	23.132421
5674.000000	23.176075
5672.000000	23.219921
5670.000000	23.266466
5668.000000	23.314440
5666.000000	23.360609
5664.000000	23.406038
5662.000000	23.451871
5660.000000	23.497914
5658.000000	23.544249
5656.000000	23.590301
5654.000000	23.637016
5652.000000	23.683048
5650.000000	23.728462
5648.000000	23.774145
5646.000000	23.819679
5644.000000	23.865123
5642.000000	23.910670
5640.000000	23.956833
5638.000000	24.003453
5636.000000	24.049321
5634.000000	24.094262
5632.000000	24.140000
5630.000000	24.186232
5628.000000	24.231132
5626.000000	24.275869
5624.000000	24.321756
5622.000000	24.369070
5620.000000	24.415324
5618.000000	24.460893
5616.000000	24.506915
5614.000000	24.553197
5612.000000	24.599575
5610.000000	24.645783
5608.000000	24.692043
5606.000000	24.738113
5604.000000	24.783246
5602.000000	24.828627
5600.000000	24.873895
5598.000000	24.920688
5596.000000	24.968152
5594.000000	25.015569
5592.000000	25.062487
5590.000000	25.109154
5588.000000	25.155704
5586.000000	25.203169
5584.000000	25.250546
5582.000000	25.298289
5580.000000	25.345357
5578.000000	25.392661
5576.000000	25.440001
5574.000000	25.488000
5572.000000	25.536226
5570.000000	25.584405
5568.000000	25.631600
5566.000000	25.679058
5564.000000	25.727542
5562.000000	25.777708
5560.000000	25.826996
5558.000000	25.875056
5556.000000	25.921728
5554.000000	25.968101
5552.000000	26.015171
5550.000000	26.062695
5548.000000	26.110218
5546.000000	26.158095
5544.000000	26.205689
5542.000000	26.253509
5540.000000	26.300026
5538.000000	26.347226
5536.000000	26.395583
5534.000000	26.446003
5532.000000	26.496231
5530.000000	26.544436
5528.000000	26.590610
5526.000000	26.635719
5524.000000	26.681373
5522.000000	26.728417
5520.000000	26.776595
5518.000000	26.826111
5516.000000	26.875236
5514.000000	26.924045
5512.000000	26.970395
5510.000000	27.014364
5508.000000	27.060425
5506.000000	27.110806
5504.000000	27.163226
5502.000000	27.212895
5500.000000	27.260612
5498.000000	27.306525
5496.000000	27.347713
5494.000000	27.388513
5492.000000	27.433078
5490.000000	27.484701
5488.000000	27.540290
5486.000000	27.596736
5484.000000	27.652425
5482.000000	27.705001
5480.000000	27.748807
5478.000000	27.784814
5476.000000	27.825439
5474.000000	27.879138
5472.000000	27.939258
5470.000000	27.993005
5468.000000	28.040603
5466.000000	28.086071
5464.000000	28.128800
5462.000000	28.174075
5460.000000	28.225778
5458.000000	28.282769
5456.000000	28.340073
5454.000000	28.390917
5452.000000	28.433362
5450.000000	28.468823
5448.000000	28.506294
5446.000000	28.552487
5444.000000	28.602197
5442.000000	28.657340
5440.000000	28.713558
5438.000000	28.764682
5436.000000	28.811344
5434.000000	28.855743
5432.000000	28.899440
5430.000000	28.945140
5428.000000	29.001487
5426.000000	29.069576
5424.000000	29.135021
5422.000000	29.190998
5420.000000	29.238764
5418.000000	29.272848
5416.000000	29.296063
5414.000000	29.325062
5412.000000	29.373920
5410.000000	29.441370
5408.000000	29.510708
5406.000000	29.573580
5404.000000	29.629116
5402.000000	29.681567
5400.000000	29.727994
5398.000000	29.764484
5396.000000	29.798133
5394.000000	29.846121
5392.000000	29.909166
5390.000000	29.969588
5388.000000	30.015323
5386.000000	30.060804
5384.000000	30.117900
5382.000000	30.177005
5380.000000	30.219022
5378.000000	30.254032
5376.000000	30.302372
5374.000000	30.369374
5372.000000	30.438055
5370.000000	30.497669
5368.000000	30.548265
5366.000000	30.594999
5364.000000	30.643428
5362.000000	30.697565
5360.000000	30.752522
5358.000000	30.794569
5356.000000	30.823972
5354.000000	30.860771
5352.000000	30.914412
5350.000000	30.972509
5348.000000	31.012131
5346.000000	31.047350
5344.000000	31.096675
5342.000000	31.149970
5340.000000	31.197245
5338.000000	31.249389
5336.000000	31.317041
5334.000000	31.386101
5332.000000	31.440254
5330.000000	31.485291
5328.000000	31.534146
5326.000000	31.592579
5324.000000	31.657491
5322.000000	31.717651
5320.000000	31.769707
5318.000000	31.819171
5316.000000	31.868879
5314.000000	31.920320
5312.000000	31.968401
5310.000000	32.011353
5308.000000	32.057249
5306.000000	32.110968
5304.000000	32.168084
5302.000000	32.222406
5300.000000	32.276252
5298.000000	32.331745
5296.000000	32.383693
5294.000000	32.426851
5292.000000	32.466976
5290.000000	32.515068
5288.000000	32.571126
5286.000000	32.629281
5284.000000	32.683465
5282.000000	32.737984
5280.000000	32.794594
5278.000000	32.852412
5276.000000	32.908941
5274.000000	32.961399
5272.000000	33.008721
5270.000000	33.053767
5268.000000	33.092481
5266.000000	33.127476
5264.000000	33.170987
5262.000000	33.234403
5260.000000	33.304910
5258.000000	33.359962
5256.000000	33.405471
5254.000000	33.456380
5252.000000	33.507264
5250.000000	33.549307
5248.000000	33.589770
5246.000000	33.644074
5244.000000	33.711314
5242.000000	33.780226
5240.000000	33.844110
5238.000000	33.899549
5236.000000	33.949104
5234.000000	33.995344
5232.000000	34.043183
5230.000000	34.090125
5228.000000	34.131432
5226.000000	34.176809
5224.000000	34.235579
5222.000000	34.301191
5220.000000	34.359413
5218.000000	34.413569
5216.000000	34.469564
5214.000000	34.524004
5212.000000	34.567168
5210.000000	34.598168
5208.000000	34.632879
5206.000000	34.690172
5204.000000	34.765312
5202.000000	34.836589
5200.000000	34.890883
5198.000000	34.940351
5196.000000	34.996520
5194.000000	35.058113
5192.000000	35.114619
5190.000000	35.164463
5188.000000	35.211119
5186.000000	35.262231
5184.000000	35.318651
5182.000000	35.378642
5180.000000	35.437049
5178.000000	35.494396
5176.000000	35.551938
5174.000000	35.607211
5172.000000	35.659542
5170.000000	35.712942
5168.000000	35.767967
5166.000000	35.822089
5164.000000	35.874430
5162.000000	35.928971
5160.000000	35.984459
5158.000000	36.038676
5156.000000	36.093095
5154.000000	36.149373
5152.000000	36.206142
5150.000000	36.262240
5148.000000	36.318256
5146.000000	36.373383
5144.000000	36.426029
5142.000000	36.479024
5140.000000	36.533609
5138.000000	36.590278
5136.000000	36.645156
5134.000000	36.699307
5132.000000	36.753175
5130.000000	36.808291
5128.000000	36.863884
5126.000000	36.918895
5124.000000	36.972486
5122.000000	37.025012
5120.000000	37.077523
5118.000000	37.131415
5116.000000	37.187573
5114.000000	37.245737
5112.000000	37.302448
5110.000000	37.356418
5108.000000	37.409141
5106.000000	37.464431
5104.000000	37.520554
5102.000000	37.576442
5100.000000	37.631773
5098.000000	37.687669
5096.000000	37.743470
5094.000000	37.799932
5092.000000	37.857341
5090.000000	37.915445
5088.000000	37.973320
5086.000000	38.030910
5084.000000	38.087375
5082.000000	38.144259
5080.000000	38.201494
5078.000000	38.258261
5076.000000	38.314342
5074.000000	38.371208
5072.000000	38.428581
5070.000000	38.485317
5068.000000	38.541271
5066.000000	38.597716
5064.000000	38.655098
5062.000000	38.712658
5060.000000	38.768892
5058.000000	38.825231
5056.000000	38.881928
5054.000000	38.938658
5052.000000	38.994092
5050.000000	39.050196
5048.000000	39.107006
5046.000000	39.163261
5044.000000	39.217835
5042.000000	39.273485
5040.000000	39.331041
5038.000000	39.389246
5036.000000	39.445965
5034.000000	39.501514
5032.000000	39.556663
5030.000000	39.612277
5028.000000	39.668195
5026.000000	39.724857
5024.000000	39.781337
5022.000000	39.837355
5020.000000	39.892827
5018.000000	39.949516
5016.000000	40.006207
5014.000000	40.063380
5012.000000	40.121427
5010.000000	40.179968
5008.000000	40.236707
5006.000000	40.293096
5004.000000	40.350235
5002.000000	40.408907
5000.000000	40.467615
4998.000000	40.526516
4996.000000	40.584541
4994.000000	40.641611
4992.000000	40.697827
4990.000000	40.755840
4988.000000	40.815477
4986.000000	40.874789
4984.000000	40.932690
4982.000000	40.991334
4980.000000	41.051166
4978.000000	41.111276
4976.000000	41.169285
4974.000000	41.226525
4972.000000	41.284687
4970.000000	41.343833
4968.000000	41.401101
4966.000000	41.457420
4964.000000	41.514654
4962.000000	41.573331
4960.000000	41.631553
4958.000000	41.689557
4956.000000	41.747356
4954.000000	41.805398
4952.000000	41.862102
4950.000000	41.918348
4948.000000	41.974618
4946.000000	42.031739
4944.000000	42.088985
4942.000000	42.146724
4940.000000	42.203846
4938.000000	42.261140
4936.000000	42.318233
4934.000000	42.374752
4932.000000	42.430272
4930.000000	42.486810
4928.000000	42.544310
4926.000000	42.602605
4924.000000	42.660182
4922.000000	42.717496
4920.000000	42.774328
4918.000000	42.831815
4916.000000	42.889164
4914.000000	42.946993
4912.000000	43.005409
4910.000000	43.064042
4908.000000	43.121351
4906.000000	43.179027
4904.000000	43.238417
4902.000000	43.298827
4900.000000	43.358314
4898.000000	43.417742
4896.000000	43.477864
4894.000000	43.538891
4892.000000	43.599524
4890.000000	43.659144
4888.000000	43.717544
4886.000000	43.776534
4884.000000	43.835398
4882.000000	43.894401
4880.000000	43.953584
4878.000000	44.014439
4876.000000	44.074898
4874.000000	44.134345
4872.000000	44.192479
4870.000000	44.251213
4868.000000	44.309922
4866.000000	44.369356
4864.000000	44.428449
4862.000000	44.487083
4860.000000	44.544309
4858.000000	44.601195
4856.000000	44.658622
4854.000000	44.718257
4852.000000	44.777869
4850.000000	44.835576
4848.000000	44.891830
4846.000000	44.949532
4844.000000	45.007548
4842.000000	45.065652
4840.000000	45.124142
4838.000000	45.182990
4836.000000	45.240455
4834.000000	45.297271
4832.000000	45.354061
4830.000000	45.412455
4828.000000	45.472382
4826.000000	45.532037
4824.000000	45.589362
4822.000000	45.647160
4820.000000	45.706210
4818.000000	45.765276
4816.000000	45.823584
4814.000000	45.881814
4812.000000	45.940612
4810.000000	46.000460
4808.000000	46.059963
4806.000000	46.119966
4804.000000	46.181150
4802.000000	46.242331
4800.000000	46.302564
4798.000000	46.363400
4796.000000	46.423670
4794.000000	46.483836
4792.000000	46.544606
4790.000000	46.606502
4788.000000	46.668020
4786.000000	46.729299
4784.000000	46.788932
4782.000000	46.848199
4780.000000	46.907319
4778.000000	46.966992
4776.000000	47.027141
4774.000000	47.088459
4772.000000	47.148621
4770.000000	47.207709
4768.000000	47.267408
4766.000000	47.328321
4764.000000	47.387720
4762.000000	47.447128
4760.000000	47.507248
4758.000000	47.566791
4756.000000	47.623345
4754.000000	47.679614
4752.000000	47.737374
4750.000000	47.796583
4748.000000	47.856092
4746.000000	47.915774
4744.000000	47.974068
4742.000000	48.031341
4740.000000	48.087968
4738.000000	48.145946
4736.000000	48.205385
4734.000000	48.265176
4732.000000	48.323002
4730.000000	48.380720
4728.000000	48.439161
4726.000000	48.498641
4724.000000	48.558046
4722.000000	48.618011
4720.000000	48.678822
4718.000000	48.741100
4716.000000	48.802933
4714.000000	48.864574
4712.000000	48.925901
4710.000000	48.988213
4708.000000	49.051586
4706.000000	49.115349
4704.000000	49.177495
4702.000000	49.239681
4700.000000	49.302979
4698.000000	49.366064
4696.000000	49.427882
4694.000000	49.490208
4692.000000	49.552410
4690.000000	49.613423
4688.000000	49.673684
4686.000000	49.735510
4684.000000	49.798700
4682.000000	49.862385
4680.000000	49.924414
4678.000000	49.986088
4676.000000	50.047240
4674.000000	50.107816
4672.000000	50.168078
4670.000000	50.231206
4668.000000	50.294792
4666.000000	50.356523
4664.000000	50.416200
4662.000000	50.476231
4660.000000	50.536194
4658.000000	50.597695
4656.000000	50.659840
4654.000000	50.721642
4652.000000	50.781892
4650.000000	50.843382
4648.000000	50.905246
4646.000000	50.966847
4644.000000	51.027393
4642.000000	51.088724
4640.000000	51.149612
4638.000000	51.209990
4636.000000	51.270552
4634.000000	51.332310
4632.000000	51.393591
4630.000000	51.455176
4628.000000	51.516316
4626.000000	51.577462
4624.000000	51.638974
4622.000000	51.701953
4620.000000	51.764673
4618.000000	51.827846
4616.000000	51.890929
4614.000000	51.954689
4612.000000	52.019341
4610.000000	52.085022
4608.000000	52.149440
4606.000000	52.213353
4604.000000	52.276938
4602.000000	52.341180
4600.000000	52.405605
4598.000000	52.471481
4596.000000	52.537296
4594.000000	52.603855
4592.000000	52.670327
4590.000000	52.735633
4588.000000	52.798001
4586.000000	52.861272
4584.000000	52.926125
4582.000000	52.992059
4580.000000	53.056777
4578.000000	53.120840
4576.000000	53.183888
4574.000000	53.248235
4572.000000	53.312839
4570.000000	53.377233
4568.000000	53.440251
4566.000000	53.503420
4564.000000	53.566202
4562.000000	53.628983
4560.000000	53.691535
4558.000000	53.755047
4556.000000	53.819126
4554.000000	53.883959
4552.000000	53.947360
4550.000000	54.009240
4548.000000	54.069900
4546.000000	54.132112
4544.000000	54.196264
4542.000000	54.261067
4540.000000	54.323906
4538.000000	54.386522
4536.000000	54.448503
4534.000000	54.510035
4532.000000	54.571581
4530.000000	54.635313
4528.000000	54.699662
4526.000000	54.763799
4524.000000	54.827740
4522.000000	54.893058
4520.000000	54.957563
4518.000000	55.021489
4516.000000	55.085339
4514.000000	55.150326
4512.000000	55.215843
4510.000000	55.282856
4508.000000	55.349162
4506.000000	55.414044
4504.000000	55.478138
4502.000000	55.544071
4500.000000	55.610066
4498.000000	55.675535
4496.000000	55.741100
4494.000000	55.807565
4492.000000	55.872850
4490.000000	55.938427
4488.000000	56.003801
4486.000000	56.068711
4484.000000	56.133438
4482.000000	56.199121
4480.000000	56.262858
4478.000000	56.325588
4476.000000	56.389197
4474.000000	56.454832
4472.000000	56.519117
4470.000000	56.581613
4468.000000	56.644009
4466.000000	56.708252
4464.000000	56.771426
4462.000000	56.833230
4460.000000	56.894748
4458.000000	56.957839
4456.000000	57.020563
4454.000000	57.081928
4452.000000	57.142014
4450.000000	57.203660
4448.000000	57.266607
4446.000000	57.330121
4444.000000	57.393031
4442.000000	57.456378
4440.000000	57.518252
4438.000000	57.579943
4436.000000	57.643094
4434.000000	57.707531
4432.000000	57.770501
4430.000000	57.833973
4428.000000	57.897000
4426.000000	57.959402
4424.000000	58.022128
4422.000000	58.087623
4420.000000	58.153589
4418.000000	58.217762
4416.000000	58.279738
4414.000000	58.343524
4412.000000	58.408617
4410.000000	58.474205
4408.000000	58.539711
4406.000000	58.604949
4404.000000	58.668709
4402.000000	58.733665
4400.000000	58.798689
4398.000000	58.862274
4396.000000	58.924332
4394.000000	58.987845
4392.000000	59.051993
4390.000000	59.116117
4388.000000	59.178567
4386.000000	59.240546
4384.000000	59.302069
4382.000000	59.363447
4380.000000	59.423327
4378.000000	59.483382
4376.000000	59.543333
4374.000000	59.603900
4372.000000	59.664282
4370.000000	59.725342
4368.000000	59.786419
4366.000000	59.847765
4364.000000	59.908042
4362.000000	59.968833
4360.000000	60.029167
4358.000000	60.089870
4356.000000	60.151516
4354.000000	60.215045
4352.000000	60.277676
4350.000000	60.340879
4348.000000	60.404664
4346.000000	60.468511
4344.000000	60.531580
4342.000000	60.595787
4340.000000	60.659016
4338.000000	60.721837
4336.000000	60.784929
4334.000000	60.849783
4332.000000	60.913953
4330.000000	60.978044
4328.000000	61.042985
4326.000000	61.110098
4324.000000	61.176713
4322.000000	61.243335
4320.000000	61.310478
4318.000000	61.378305
4316.000000	61.444850
4314.000000	61.512447
4312.000000	61.580841
4310.000000	61.649021
4308.000000	61.715732
4306.000000	61.781848
4304.000000	61.847445
4302.000000	61.914687
4300.000000	61.982102
4298.000000	62.048058
4296.000000	62.111855
4294.000000	62.175863
4292.000000	62.240044
