PE IR       SUBTECH     SPECTRUM    ASCII       PEDS        4.00        
   -1
TE110A_019_AFTER_90K_BG.ASC
20/05/14
12:12:00.00
20/05/14
12:12:00.00
Administrator
TE110A.Thursday, May 14 2020, 002.
1000.000000
#HDR
-1
-1
#GR
cm-1
EGY
1.0
0.0
6000.000000
-2.000000
2501
8
105.637271
11.031720
#DATA
6000.000000	16.752900
5998.000000	16.785154
5996.000000	16.816778
5994.000000	16.849453
5992.000000	16.881958
5990.000000	16.914716
5988.000000	16.947112
5986.000000	16.980499
5984.000000	17.014583
5982.000000	17.048647
5980.000000	17.082071
5978.000000	17.116514
5976.000000	17.150715
5974.000000	17.184720
5972.000000	17.218719
5970.000000	17.253497
5968.000000	17.287446
5966.000000	17.321416
5964.000000	17.354730
5962.000000	17.389014
5960.000000	17.422397
5958.000000	17.456029
5956.000000	17.490856
5954.000000	17.526055
5952.000000	17.561074
5950.000000	17.595884
5948.000000	17.630215
5946.000000	17.664966
5944.000000	17.698496
5942.000000	17.731425
5940.000000	17.764944
5938.000000	17.799833
5936.000000	17.834595
5934.000000	17.868825
5932.000000	17.902049
5930.000000	17.936278
5928.000000	17.971054
5926.000000	18.005243
5924.000000	18.040381
5922.000000	18.076013
5920.000000	18.112158
5918.000000	18.148274
5916.000000	18.183783
5914.000000	18.220284
5912.000000	18.257269
5910.000000	18.294852
5908.000000	18.331379
5906.000000	18.367425
5904.000000	18.403882
5902.000000	18.441209
5900.000000	18.478745
5898.000000	18.515451
5896.000000	18.551892
5894.000000	18.587916
5892.000000	18.623459
5890.000000	18.660106
5888.000000	18.696929
5886.000000	18.733882
5884.000000	18.769504
5882.000000	18.805440
5880.000000	18.841676
5878.000000	18.877686
5876.000000	18.913572
5874.000000	18.950138
5872.000000	18.987866
5870.000000	19.026420
5868.000000	19.063214
5866.000000	19.100434
5864.000000	19.137231
5862.000000	19.175294
5860.000000	19.213696
5858.000000	19.251316
5856.000000	19.289439
5854.000000	19.327880
5852.000000	19.366366
5850.000000	19.405735
5848.000000	19.444733
5846.000000	19.485068
5844.000000	19.525178
5842.000000	19.565393
5840.000000	19.607023
5838.000000	19.649282
5836.000000	19.691788
5834.000000	19.733740
5832.000000	19.773968
5830.000000	19.814859
5828.000000	19.856181
5826.000000	19.898349
5824.000000	19.940500
5822.000000	19.982162
5820.000000	20.023830
5818.000000	20.064952
5816.000000	20.105327
5814.000000	20.146310
5812.000000	20.187701
5810.000000	20.228489
5808.000000	20.268080
5806.000000	20.308497
5804.000000	20.349419
5802.000000	20.390207
5800.000000	20.430567
5798.000000	20.471393
5796.000000	20.512327
5794.000000	20.553159
5792.000000	20.594760
5790.000000	20.636796
5788.000000	20.678956
5786.000000	20.720470
5784.000000	20.762186
5782.000000	20.803834
5780.000000	20.845699
5778.000000	20.888756
5776.000000	20.931381
5774.000000	20.972860
5772.000000	21.013675
5770.000000	21.055310
5768.000000	21.098515
5766.000000	21.141138
5764.000000	21.183556
5762.000000	21.225213
5760.000000	21.266419
5758.000000	21.307950
5756.000000	21.350315
5754.000000	21.392937
5752.000000	21.435196
5750.000000	21.477129
5748.000000	21.519280
5746.000000	21.561568
5744.000000	21.602658
5742.000000	21.643435
5740.000000	21.683771
5738.000000	21.724045
5736.000000	21.764487
5734.000000	21.805788
5732.000000	21.848065
5730.000000	21.890229
5728.000000	21.930709
5726.000000	21.970728
5724.000000	22.010645
5722.000000	22.052910
5720.000000	22.095506
5718.000000	22.138065
5716.000000	22.180912
5714.000000	22.225734
5712.000000	22.271317
5710.000000	22.316041
5708.000000	22.359572
5706.000000	22.403284
5704.000000	22.447420
5702.000000	22.491352
5700.000000	22.535949
5698.000000	22.581583
5696.000000	22.627464
5694.000000	22.673608
5692.000000	22.718676
5690.000000	22.764311
5688.000000	22.810135
5686.000000	22.856460
5684.000000	22.901573
5682.000000	22.945619
5680.000000	22.989657
5678.000000	23.035426
5676.000000	23.081559
5674.000000	23.127770
5672.000000	23.173487
5670.000000	23.219725
5668.000000	23.265968
5666.000000	23.312075
5664.000000	23.357439
5662.000000	23.403108
5660.000000	23.449257
5658.000000	23.495480
5656.000000	23.540524
5654.000000	23.585173
5652.000000	23.629437
5650.000000	23.674690
5648.000000	23.720948
5646.000000	23.767775
5644.000000	23.813756
5642.000000	23.859057
5640.000000	23.904024
5638.000000	23.949639
5636.000000	23.994853
5634.000000	24.040961
5632.000000	24.086938
5630.000000	24.132597
5628.000000	24.178213
5626.000000	24.224231
5624.000000	24.269909
5622.000000	24.315444
5620.000000	24.361189
5618.000000	24.407394
5616.000000	24.453462
5614.000000	24.498939
5612.000000	24.544412
5610.000000	24.590581
5608.000000	24.636197
5606.000000	24.682121
5604.000000	24.727951
5602.000000	24.774870
5600.000000	24.821514
5598.000000	24.867192
5596.000000	24.912527
5594.000000	24.959103
5592.000000	25.006223
5590.000000	25.053672
5588.000000	25.100711
5586.000000	25.147893
5584.000000	25.195027
5582.000000	25.242341
5580.000000	25.289654
5578.000000	25.337429
5576.000000	25.385644
5574.000000	25.433708
5572.000000	25.481618
5570.000000	25.529476
5568.000000	25.576704
5566.000000	25.624132
5564.000000	25.671587
5562.000000	25.720598
5560.000000	25.769780
5558.000000	25.818224
5556.000000	25.865169
5554.000000	25.911853
5552.000000	25.958309
5550.000000	26.005268
5548.000000	26.052848
5546.000000	26.101039
5544.000000	26.149705
5542.000000	26.197967
5540.000000	26.245184
5538.000000	26.291842
5536.000000	26.339251
5534.000000	26.387721
5532.000000	26.436545
5530.000000	26.484697
5528.000000	26.532247
5526.000000	26.578712
5524.000000	26.624093
5522.000000	26.671260
5520.000000	26.718864
5518.000000	26.766437
5516.000000	26.814289
5514.000000	26.864936
5512.000000	26.913582
5510.000000	26.957705
5508.000000	27.001694
5506.000000	27.050122
5504.000000	27.101394
5502.000000	27.151814
5500.000000	27.200843
5498.000000	27.246292
5496.000000	27.284525
5494.000000	27.322849
5492.000000	27.368151
5490.000000	27.422490
5488.000000	27.480135
5486.000000	27.538088
5484.000000	27.594133
5482.000000	27.645810
5480.000000	27.686718
5478.000000	27.718962
5476.000000	27.758488
5474.000000	27.813795
5472.000000	27.875411
5470.000000	27.929568
5468.000000	27.976974
5466.000000	28.023295
5464.000000	28.066639
5462.000000	28.111981
5460.000000	28.163797
5458.000000	28.220845
5456.000000	28.277736
5454.000000	28.328709
5452.000000	28.372174
5450.000000	28.408297
5448.000000	28.444355
5446.000000	28.486831
5444.000000	28.534051
5442.000000	28.589889
5440.000000	28.647935
5438.000000	28.698515
5436.000000	28.743723
5434.000000	28.788600
5432.000000	28.832236
5430.000000	28.876690
5428.000000	28.932106
5426.000000	29.002334
5424.000000	29.070834
5422.000000	29.127559
5420.000000	29.175763
5418.000000	29.208986
5416.000000	29.230047
5414.000000	29.255722
5412.000000	29.302332
5410.000000	29.371214
5408.000000	29.443300
5406.000000	29.508849
5404.000000	29.565757
5402.000000	29.617595
5400.000000	29.663041
5398.000000	29.696686
5396.000000	29.727388
5394.000000	29.773983
5392.000000	29.838228
5390.000000	29.900592
5388.000000	29.947225
5386.000000	29.993781
5384.000000	30.052338
5382.000000	30.111458
5380.000000	30.152048
5378.000000	30.186256
5376.000000	30.234525
5374.000000	30.302399
5372.000000	30.372450
5370.000000	30.432997
5368.000000	30.482906
5366.000000	30.528090
5364.000000	30.575339
5362.000000	30.628245
5360.000000	30.682309
5358.000000	30.724309
5356.000000	30.753373
5354.000000	30.789346
5352.000000	30.842839
5350.000000	30.901822
5348.000000	30.940851
5346.000000	30.975980
5344.000000	31.024787
5342.000000	31.077537
5340.000000	31.124032
5338.000000	31.176303
5336.000000	31.245226
5334.000000	31.314926
5332.000000	31.370315
5330.000000	31.415337
5328.000000	31.463435
5326.000000	31.522334
5324.000000	31.588635
5322.000000	31.649441
5320.000000	31.700435
5318.000000	31.749634
5316.000000	31.800880
5314.000000	31.853792
5312.000000	31.901152
5310.000000	31.941025
5308.000000	31.983980
5306.000000	32.038070
5304.000000	32.098527
5302.000000	32.154603
5300.000000	32.206760
5298.000000	32.259491
5296.000000	32.311126
5294.000000	32.354593
5292.000000	32.394595
5290.000000	32.442723
5288.000000	32.498869
5286.000000	32.556511
5284.000000	32.610257
5282.000000	32.665184
5280.000000	32.722791
5278.000000	32.781175
5276.000000	32.837152
5274.000000	32.887999
5272.000000	32.935466
5270.000000	32.981923
5268.000000	33.020398
5266.000000	33.053442
5264.000000	33.096869
5262.000000	33.160892
5260.000000	33.230504
5258.000000	33.284416
5256.000000	33.329742
5254.000000	33.380697
5252.000000	33.430581
5250.000000	33.472250
5248.000000	33.513599
5246.000000	33.569520
5244.000000	33.637246
5242.000000	33.705646
5240.000000	33.768528
5238.000000	33.823548
5236.000000	33.873432
5234.000000	33.920784
5232.000000	33.968812
5230.000000	34.014407
5228.000000	34.053914
5226.000000	34.098933
5224.000000	34.158806
5222.000000	34.225426
5220.000000	34.284010
5218.000000	34.338770
5216.000000	34.397438
5214.000000	34.454033
5212.000000	34.496173
5210.000000	34.522752
5208.000000	34.553769
5206.000000	34.611027
5204.000000	34.687814
5202.000000	34.760503
5200.000000	34.814914
5198.000000	34.863830
5196.000000	34.918649
5194.000000	34.978987
5192.000000	35.035572
5190.000000	35.086598
5188.000000	35.134769
5186.000000	35.186032
5184.000000	35.242386
5182.000000	35.302669
5180.000000	35.360925
5178.000000	35.417708
5176.000000	35.474444
5174.000000	35.528905
5172.000000	35.582051
5170.000000	35.637579
5168.000000	35.693384
5166.000000	35.746188
5164.000000	35.798772
5162.000000	35.854703
5160.000000	35.910401
5158.000000	35.963544
5156.000000	36.017143
5154.000000	36.073715
5152.000000	36.131589
5150.000000	36.188672
5148.000000	36.244007
5146.000000	36.296875
5144.000000	36.347778
5142.000000	36.400749
5140.000000	36.456402
5138.000000	36.512496
5136.000000	36.566198
5134.000000	36.620569
5132.000000	36.675845
5130.000000	36.730925
5128.000000	36.784847
5126.000000	36.840255
5124.000000	36.895856
5122.000000	36.949332
5120.000000	37.001513
5118.000000	37.055769
5116.000000	37.111312
5114.000000	37.166513
5112.000000	37.220512
5110.000000	37.275869
5108.000000	37.332210
5106.000000	37.389072
5104.000000	37.445749
5102.000000	37.502001
5100.000000	37.557287
5098.000000	37.611654
5096.000000	37.666136
5094.000000	37.722500
5092.000000	37.781126
5090.000000	37.840081
5088.000000	37.896173
5086.000000	37.951223
5084.000000	38.007339
5082.000000	38.064639
5080.000000	38.121981
5078.000000	38.180523
5076.000000	38.237855
5074.000000	38.293523
5072.000000	38.349308
5070.000000	38.406985
5068.000000	38.464501
5066.000000	38.520229
5064.000000	38.575640
5062.000000	38.632608
5060.000000	38.689836
5058.000000	38.746850
5056.000000	38.802547
5054.000000	38.858520
5052.000000	38.914541
5050.000000	38.971233
5048.000000	39.027760
5046.000000	39.084008
5044.000000	39.140087
5042.000000	39.196409
5040.000000	39.252175
5038.000000	39.307823
5036.000000	39.364065
5034.000000	39.421118
5032.000000	39.477591
5030.000000	39.533781
5028.000000	39.589898
5026.000000	39.646384
5024.000000	39.702489
5022.000000	39.758647
5020.000000	39.814551
5018.000000	39.871196
5016.000000	39.928391
5014.000000	39.985557
5012.000000	40.041677
5010.000000	40.097943
5008.000000	40.155095
5006.000000	40.213481
5004.000000	40.271445
5002.000000	40.329619
5000.000000	40.387231
4998.000000	40.444809
4996.000000	40.501998
4994.000000	40.559579
4992.000000	40.617587
4990.000000	40.677068
4988.000000	40.736664
4986.000000	40.795997
4984.000000	40.854357
4982.000000	40.912819
4980.000000	40.971331
4978.000000	41.030115
4976.000000	41.088214
4974.000000	41.145639
4972.000000	41.203426
4970.000000	41.261712
4968.000000	41.318899
4966.000000	41.376204
4964.000000	41.434519
4962.000000	41.494261
4960.000000	41.552833
4958.000000	41.610602
4956.000000	41.666877
4954.000000	41.722876
4952.000000	41.779845
4950.000000	41.837774
4948.000000	41.894811
4946.000000	41.951382
4944.000000	42.007794
4942.000000	42.064840
4940.000000	42.121120
4938.000000	42.177399
4936.000000	42.233274
4934.000000	42.291025
4932.000000	42.348759
4930.000000	42.406234
4928.000000	42.463154
4926.000000	42.519852
4924.000000	42.576059
4922.000000	42.633938
4920.000000	42.692600
4918.000000	42.751008
4916.000000	42.808446
4914.000000	42.866489
4912.000000	42.925164
4910.000000	42.984279
4908.000000	43.042537
4906.000000	43.100078
4904.000000	43.157547
4902.000000	43.216591
4900.000000	43.277184
4898.000000	43.338372
4896.000000	43.398879
4894.000000	43.458396
4892.000000	43.516478
4890.000000	43.574207
4888.000000	43.632715
4886.000000	43.692952
4884.000000	43.753262
4882.000000	43.812452
4880.000000	43.871044
4878.000000	43.931003
4876.000000	43.990479
4874.000000	44.048922
4872.000000	44.107510
4870.000000	44.167319
4868.000000	44.226071
4866.000000	44.284762
4864.000000	44.343626
4862.000000	44.402601
4860.000000	44.460542
4858.000000	44.519172
4856.000000	44.577946
4854.000000	44.636783
4852.000000	44.694605
4850.000000	44.752266
4848.000000	44.810093
4846.000000	44.868667
4844.000000	44.926010
4842.000000	44.982542
4840.000000	45.038994
4838.000000	45.096996
4836.000000	45.155534
4834.000000	45.214822
4832.000000	45.273667
4830.000000	45.332309
4828.000000	45.389878
4826.000000	45.447940
4824.000000	45.506534
4822.000000	45.565049
4820.000000	45.622384
4818.000000	45.679878
4816.000000	45.738610
4814.000000	45.798485
4812.000000	45.858188
4810.000000	45.917937
4808.000000	45.977483
4806.000000	46.037780
4804.000000	46.098330
4802.000000	46.159145
4800.000000	46.219169
4798.000000	46.279628
4796.000000	46.339368
4794.000000	46.399271
4792.000000	46.459767
4790.000000	46.522277
4788.000000	46.584516
4786.000000	46.645113
4784.000000	46.704146
4782.000000	46.763961
4780.000000	46.823684
4778.000000	46.883664
4776.000000	46.944364
4774.000000	47.005483
4772.000000	47.064535
4770.000000	47.123574
4768.000000	47.183453
4766.000000	47.243978
4764.000000	47.302702
4762.000000	47.360911
4760.000000	47.419104
4758.000000	47.478535
4756.000000	47.537740
4754.000000	47.596605
4752.000000	47.654580
4750.000000	47.712442
4748.000000	47.769671
4746.000000	47.827304
4744.000000	47.885307
4742.000000	47.944017
4740.000000	48.002863
4738.000000	48.062028
4736.000000	48.120113
4734.000000	48.178182
4732.000000	48.236548
4730.000000	48.295697
4728.000000	48.354363
4726.000000	48.413667
4724.000000	48.472618
4722.000000	48.531929
4720.000000	48.591526
4718.000000	48.653279
4716.000000	48.715777
4714.000000	48.777819
4712.000000	48.838749
4710.000000	48.900996
4708.000000	48.964057
4706.000000	49.027936
4704.000000	49.091784
4702.000000	49.155736
4700.000000	49.218686
4698.000000	49.281396
4696.000000	49.344081
4694.000000	49.407312
4692.000000	49.469024
4690.000000	49.529532
4688.000000	49.589978
4686.000000	49.652221
4684.000000	49.714461
4682.000000	49.776771
4680.000000	49.838635
4678.000000	49.901283
4676.000000	49.962633
4674.000000	50.022706
4672.000000	50.082163
4670.000000	50.144164
4668.000000	50.206114
4666.000000	50.267353
4664.000000	50.328600
4662.000000	50.391445
4660.000000	50.452758
4658.000000	50.513026
4656.000000	50.573509
4654.000000	50.635263
4652.000000	50.697163
4650.000000	50.758811
4648.000000	50.819165
4646.000000	50.879477
4644.000000	50.939978
4642.000000	51.001791
4640.000000	51.063521
4638.000000	51.126015
4636.000000	51.188484
4634.000000	51.250755
4632.000000	51.310580
4630.000000	51.370742
4628.000000	51.431874
4626.000000	51.494253
4624.000000	51.556121
4622.000000	51.617858
4620.000000	51.679447
4618.000000	51.742963
4616.000000	51.806618
4614.000000	51.871209
4612.000000	51.935616
4610.000000	51.999413
4608.000000	52.062727
4606.000000	52.127598
4604.000000	52.192144
4602.000000	52.257786
4600.000000	52.323880
4598.000000	52.390160
4596.000000	52.455331
4594.000000	52.520708
4592.000000	52.585065
4590.000000	52.649633
4588.000000	52.713863
4586.000000	52.778727
4584.000000	52.842065
4582.000000	52.905459
4580.000000	52.969830
4578.000000	53.034975
4576.000000	53.098643
4574.000000	53.162956
4572.000000	53.227815
4570.000000	53.292525
4568.000000	53.355364
4566.000000	53.418322
4564.000000	53.482682
4562.000000	53.547790
4560.000000	53.610629
4558.000000	53.672919
4556.000000	53.735788
4554.000000	53.799136
4552.000000	53.861091
4550.000000	53.922997
4548.000000	53.985507
4546.000000	54.048776
4544.000000	54.111006
4542.000000	54.174173
4540.000000	54.238062
4538.000000	54.301472
4536.000000	54.363844
4534.000000	54.426659
4532.000000	54.489080
4530.000000	54.552258
4528.000000	54.615894
4526.000000	54.680533
4524.000000	54.745492
4522.000000	54.810087
4520.000000	54.873280
4518.000000	54.937620
4516.000000	55.002252
4514.000000	55.067088
4512.000000	55.131772
4510.000000	55.196989
4508.000000	55.261059
4506.000000	55.325666
4504.000000	55.390796
4502.000000	55.457133
4500.000000	55.523460
4498.000000	55.590332
4496.000000	55.656869
4494.000000	55.724277
4492.000000	55.790595
4490.000000	55.855996
4488.000000	55.921144
4486.000000	55.986876
4484.000000	56.051312
4482.000000	56.115440
4480.000000	56.179532
4478.000000	56.243598
4476.000000	56.306564
4474.000000	56.370619
4472.000000	56.434565
4470.000000	56.497305
4468.000000	56.559688
4466.000000	56.623203
4464.000000	56.685622
4462.000000	56.748761
4460.000000	56.811489
4458.000000	56.873776
4456.000000	56.936113
4454.000000	56.998740
4452.000000	57.059500
4450.000000	57.120964
4448.000000	57.182206
4446.000000	57.244409
4444.000000	57.307894
4442.000000	57.372011
4440.000000	57.434383
4438.000000	57.497368
4436.000000	57.559894
4434.000000	57.622054
4432.000000	57.684261
4430.000000	57.748062
4428.000000	57.812130
4426.000000	57.877176
4424.000000	57.941664
4422.000000	58.005177
4420.000000	58.068277
4418.000000	58.132748
4416.000000	58.196560
4414.000000	58.260707
4412.000000	58.325624
4410.000000	58.390197
4408.000000	58.452688
4406.000000	58.516999
4404.000000	58.583554
4402.000000	58.649814
4400.000000	58.713116
4398.000000	58.776799
4396.000000	58.841150
4394.000000	58.905459
4392.000000	58.968234
4390.000000	59.031693
4388.000000	59.094459
4386.000000	59.155886
4384.000000	59.216037
4382.000000	59.277628
4380.000000	59.339349
4378.000000	59.400864
4376.000000	59.460564
4374.000000	59.520360
4372.000000	59.580498
4370.000000	59.640949
4368.000000	59.701020
4366.000000	59.762782
4364.000000	59.823469
4362.000000	59.883045
4360.000000	59.943397
4358.000000	60.006820
4356.000000	60.069773
4354.000000	60.131346
4352.000000	60.193911
4350.000000	60.259610
4348.000000	60.323976
4346.000000	60.387361
4344.000000	60.450532
4342.000000	60.513908
4340.000000	60.576788
4338.000000	60.640878
4336.000000	60.704624
4334.000000	60.768035
4332.000000	60.830499
4330.000000	60.894461
4328.000000	60.959141
4326.000000	61.024945
4324.000000	61.090994
4322.000000	61.157272
4320.000000	61.223763
4318.000000	61.292956
4316.000000	61.361545
4314.000000	61.428468
4312.000000	61.495869
4310.000000	61.565525
4308.000000	61.633075
4306.000000	61.698995
4304.000000	61.764575
4302.000000	61.831113
4300.000000	61.897554
4298.000000	61.963727
4296.000000	62.028276
4294.000000	62.093783
4292.000000	62.158859
