PE IR       SUBTECH     SPECTRUM    ASCII       PEDS        4.00        
   -1
TE110A_093_160K_BG.ASC
20/05/14
17:01:03.00
20/05/14
17:01:03.00
Administrator
TE110A.Thursday, May 14 2020, 003.
1000.000000
#HDR
-1
-1
#GR
cm-1
EGY
1.0
0.0
6000.000000
-2.000000
2501
8
105.798903
11.041222
#DATA
6000.000000	16.921969
5998.000000	16.955083
5996.000000	16.988848
5994.000000	17.022994
5992.000000	17.056563
5990.000000	17.089408
5988.000000	17.122054
5986.000000	17.154186
5984.000000	17.186816
5982.000000	17.221422
5980.000000	17.256035
5978.000000	17.290503
5976.000000	17.324559
5974.000000	17.359269
5972.000000	17.393107
5970.000000	17.426312
5968.000000	17.458868
5966.000000	17.492828
5964.000000	17.528008
5962.000000	17.563926
5960.000000	17.599665
5958.000000	17.634208
5956.000000	17.668097
5954.000000	17.702748
5952.000000	17.738156
5950.000000	17.772305
5948.000000	17.806220
5946.000000	17.839928
5944.000000	17.874272
5942.000000	17.909187
5940.000000	17.943405
5938.000000	17.977616
5936.000000	18.010529
5934.000000	18.043685
5932.000000	18.077952
5930.000000	18.113626
5928.000000	18.148253
5926.000000	18.182847
5924.000000	18.217643
5922.000000	18.254800
5920.000000	18.291195
5918.000000	18.327766
5916.000000	18.363843
5914.000000	18.400624
5912.000000	18.437776
5910.000000	18.475270
5908.000000	18.512282
5906.000000	18.549679
5904.000000	18.586704
5902.000000	18.623435
5900.000000	18.660279
5898.000000	18.697808
5896.000000	18.735760
5894.000000	18.772975
5892.000000	18.808569
5890.000000	18.844271
5888.000000	18.880082
5886.000000	18.916338
5884.000000	18.952301
5882.000000	18.988460
5880.000000	19.023792
5878.000000	19.059521
5876.000000	19.095586
5874.000000	19.133152
5872.000000	19.169896
5870.000000	19.207422
5868.000000	19.244291
5866.000000	19.282416
5864.000000	19.319705
5862.000000	19.357912
5860.000000	19.396088
5858.000000	19.435125
5856.000000	19.473115
5854.000000	19.511487
5852.000000	19.550475
5850.000000	19.590411
5848.000000	19.629383
5846.000000	19.668345
5844.000000	19.706827
5842.000000	19.747472
5840.000000	19.789750
5838.000000	19.833371
5836.000000	19.876251
5834.000000	19.918421
5832.000000	19.959835
5830.000000	20.002080
5828.000000	20.043764
5826.000000	20.085269
5824.000000	20.126018
5822.000000	20.167003
5820.000000	20.208436
5818.000000	20.251125
5816.000000	20.292978
5814.000000	20.334533
5812.000000	20.374984
5810.000000	20.415288
5808.000000	20.455927
5806.000000	20.497951
5804.000000	20.539810
5802.000000	20.580863
5800.000000	20.620351
5798.000000	20.661283
5796.000000	20.702756
5794.000000	20.744469
5792.000000	20.785655
5790.000000	20.827612
5788.000000	20.868526
5786.000000	20.909046
5784.000000	20.950257
5782.000000	20.994290
5780.000000	21.038294
5778.000000	21.080965
5776.000000	21.121173
5774.000000	21.162644
5772.000000	21.204872
5770.000000	21.248066
5768.000000	21.290533
5766.000000	21.332904
5764.000000	21.374990
5762.000000	21.416034
5760.000000	21.456744
5758.000000	21.498945
5756.000000	21.542259
5754.000000	21.586057
5752.000000	21.628005
5750.000000	21.671810
5748.000000	21.714349
5746.000000	21.756311
5744.000000	21.796600
5742.000000	21.837503
5740.000000	21.878920
5738.000000	21.920124
5736.000000	21.961351
5734.000000	22.003161
5732.000000	22.043368
5730.000000	22.083991
5728.000000	22.124620
5726.000000	22.166281
5724.000000	22.207732
5722.000000	22.250168
5720.000000	22.292935
5718.000000	22.336233
5716.000000	22.378502
5714.000000	22.422024
5712.000000	22.465286
5710.000000	22.509783
5708.000000	22.555079
5706.000000	22.600303
5704.000000	22.644085
5702.000000	22.688594
5700.000000	22.734836
5698.000000	22.780957
5696.000000	22.825072
5694.000000	22.869999
5692.000000	22.916024
5690.000000	22.963576
5688.000000	23.009347
5686.000000	23.054774
5684.000000	23.100033
5682.000000	23.145494
5680.000000	23.190902
5678.000000	23.237031
5676.000000	23.282530
5674.000000	23.328123
5672.000000	23.372248
5670.000000	23.417984
5668.000000	23.464407
5666.000000	23.511121
5664.000000	23.557130
5662.000000	23.604151
5660.000000	23.651794
5658.000000	23.698256
5656.000000	23.743396
5654.000000	23.788751
5652.000000	23.834266
5650.000000	23.880732
5648.000000	23.926718
5646.000000	23.973710
5644.000000	24.019904
5642.000000	24.065669
5640.000000	24.110284
5638.000000	24.155108
5636.000000	24.200699
5634.000000	24.246907
5632.000000	24.292857
5630.000000	24.338758
5628.000000	24.384224
5626.000000	24.429878
5624.000000	24.475061
5622.000000	24.521174
5620.000000	24.567368
5618.000000	24.612786
5616.000000	24.657433
5614.000000	24.704193
5612.000000	24.751869
5610.000000	24.799615
5608.000000	24.844649
5606.000000	24.889490
5604.000000	24.935040
5602.000000	24.982741
5600.000000	25.030012
5598.000000	25.076054
5596.000000	25.120715
5594.000000	25.168014
5592.000000	25.216157
5590.000000	25.263648
5588.000000	25.308925
5586.000000	25.355622
5584.000000	25.403824
5582.000000	25.452835
5580.000000	25.501058
5578.000000	25.548921
5576.000000	25.596112
5574.000000	25.643582
5572.000000	25.690891
5570.000000	25.738643
5568.000000	25.785937
5566.000000	25.835441
5564.000000	25.885308
5562.000000	25.935247
5560.000000	25.982878
5558.000000	26.030491
5556.000000	26.077516
5554.000000	26.124959
5552.000000	26.172352
5550.000000	26.220653
5548.000000	26.269029
5546.000000	26.317551
5544.000000	26.365397
5542.000000	26.413068
5540.000000	26.459539
5538.000000	26.505871
5536.000000	26.553064
5534.000000	26.603259
5532.000000	26.653751
5530.000000	26.702926
5528.000000	26.748638
5526.000000	26.794225
5524.000000	26.840533
5522.000000	26.888949
5520.000000	26.936627
5518.000000	26.984156
5516.000000	27.031990
5514.000000	27.081762
5512.000000	27.130426
5510.000000	27.176521
5508.000000	27.221513
5506.000000	27.268483
5504.000000	27.318312
5502.000000	27.370327
5500.000000	27.420681
5498.000000	27.467451
5496.000000	27.507723
5494.000000	27.548769
5492.000000	27.593602
5490.000000	27.645410
5488.000000	27.701695
5486.000000	27.760109
5484.000000	27.814952
5482.000000	27.865363
5480.000000	27.908516
5478.000000	27.946182
5476.000000	27.987209
5474.000000	28.038946
5472.000000	28.096622
5470.000000	28.149591
5468.000000	28.197063
5466.000000	28.244087
5464.000000	28.289998
5462.000000	28.338421
5460.000000	28.389775
5458.000000	28.444848
5456.000000	28.500742
5454.000000	28.553602
5452.000000	28.598416
5450.000000	28.635345
5448.000000	28.671885
5446.000000	28.716185
5444.000000	28.764946
5442.000000	28.820667
5440.000000	28.876799
5438.000000	28.927915
5436.000000	28.974557
5434.000000	29.019774
5432.000000	29.062489
5430.000000	29.107563
5428.000000	29.163847
5426.000000	29.232300
5424.000000	29.296975
5422.000000	29.352574
5420.000000	29.401629
5418.000000	29.437603
5416.000000	29.461739
5414.000000	29.491171
5412.000000	29.539803
5410.000000	29.605543
5408.000000	29.673751
5406.000000	29.737717
5404.000000	29.794729
5402.000000	29.846465
5400.000000	29.891670
5398.000000	29.927953
5396.000000	29.961786
5394.000000	30.010592
5392.000000	30.074128
5390.000000	30.135475
5388.000000	30.182157
5386.000000	30.228768
5384.000000	30.284347
5382.000000	30.340267
5380.000000	30.380482
5378.000000	30.417753
5376.000000	30.468219
5374.000000	30.536896
5372.000000	30.606153
5370.000000	30.665694
5368.000000	30.714199
5366.000000	30.759777
5364.000000	30.809189
5362.000000	30.865411
5360.000000	30.921078
5358.000000	30.964077
5356.000000	30.994801
5354.000000	31.032024
5352.000000	31.084339
5350.000000	31.140434
5348.000000	31.179535
5346.000000	31.215921
5344.000000	31.265229
5342.000000	31.318865
5340.000000	31.366827
5338.000000	31.419591
5336.000000	31.485458
5334.000000	31.553256
5332.000000	31.608645
5330.000000	31.655269
5328.000000	31.704483
5326.000000	31.763069
5324.000000	31.827763
5322.000000	31.887525
5320.000000	31.938940
5318.000000	31.988809
5316.000000	32.039898
5314.000000	32.092463
5312.000000	32.140014
5310.000000	32.181778
5308.000000	32.226618
5306.000000	32.281445
5304.000000	32.340210
5302.000000	32.395124
5300.000000	32.446802
5298.000000	32.500450
5296.000000	32.554116
5294.000000	32.599860
5292.000000	32.640633
5290.000000	32.688029
5288.000000	32.743102
5286.000000	32.801812
5284.000000	32.856340
5282.000000	32.911611
5280.000000	32.967433
5278.000000	33.024544
5276.000000	33.081030
5274.000000	33.134099
5272.000000	33.182185
5270.000000	33.227795
5268.000000	33.267103
5266.000000	33.303383
5264.000000	33.347450
5262.000000	33.410061
5260.000000	33.477984
5258.000000	33.531509
5256.000000	33.576488
5254.000000	33.629329
5252.000000	33.681611
5250.000000	33.725119
5248.000000	33.766725
5246.000000	33.821708
5244.000000	33.888231
5242.000000	33.956747
5240.000000	34.020868
5238.000000	34.076218
5236.000000	34.124329
5234.000000	34.170131
5232.000000	34.217567
5230.000000	34.265621
5228.000000	34.308821
5226.000000	34.355174
5224.000000	34.412280
5222.000000	34.477342
5220.000000	34.536662
5218.000000	34.592070
5216.000000	34.648570
5214.000000	34.704171
5212.000000	34.746820
5210.000000	34.776451
5208.000000	34.811104
5206.000000	34.870496
5204.000000	34.945858
5202.000000	35.016317
5200.000000	35.070841
5198.000000	35.121148
5196.000000	35.176100
5194.000000	35.236020
5192.000000	35.292782
5190.000000	35.343917
5188.000000	35.391553
5186.000000	35.442956
5184.000000	35.499303
5182.000000	35.559360
5180.000000	35.617148
5178.000000	35.673518
5176.000000	35.729403
5174.000000	35.785077
5172.000000	35.839331
5170.000000	35.894686
5168.000000	35.948858
5166.000000	36.001383
5164.000000	36.054620
5162.000000	36.111544
5160.000000	36.167738
5158.000000	36.222182
5156.000000	36.276301
5154.000000	36.331603
5152.000000	36.387125
5150.000000	36.444074
5148.000000	36.499830
5146.000000	36.553229
5144.000000	36.604999
5142.000000	36.659115
5140.000000	36.715380
5138.000000	36.772011
5136.000000	36.825891
5134.000000	36.879482
5132.000000	36.934241
5130.000000	36.990979
5128.000000	37.046957
5126.000000	37.102490
5124.000000	37.156510
5122.000000	37.210556
5120.000000	37.264187
5118.000000	37.319640
5116.000000	37.374770
5114.000000	37.430827
5112.000000	37.486342
5110.000000	37.541908
5108.000000	37.595591
5106.000000	37.649609
5104.000000	37.705329
5102.000000	37.762893
5100.000000	37.819535
5098.000000	37.875469
5096.000000	37.931043
5094.000000	37.988376
5092.000000	38.045855
5090.000000	38.103601
5088.000000	38.160448
5086.000000	38.217300
5084.000000	38.273428
5082.000000	38.330428
5080.000000	38.387666
5078.000000	38.445221
5076.000000	38.500637
5074.000000	38.556489
5072.000000	38.613518
5070.000000	38.672040
5068.000000	38.729123
5066.000000	38.787024
5064.000000	38.844333
5062.000000	38.900792
5060.000000	38.956036
5058.000000	39.012917
5056.000000	39.070423
5054.000000	39.127784
5052.000000	39.184315
5050.000000	39.241411
5048.000000	39.298632
5046.000000	39.355474
5044.000000	39.410746
5042.000000	39.467576
5040.000000	39.524287
5038.000000	39.580517
5036.000000	39.635592
5034.000000	39.691680
5032.000000	39.747734
5030.000000	39.804557
5028.000000	39.861479
5026.000000	39.918628
5024.000000	39.974341
5022.000000	40.030799
5020.000000	40.086863
5018.000000	40.143189
5016.000000	40.199483
5014.000000	40.257221
5012.000000	40.314141
5010.000000	40.371301
5008.000000	40.428521
5006.000000	40.487169
5004.000000	40.545431
5002.000000	40.603689
5000.000000	40.659868
4998.000000	40.716547
4996.000000	40.774250
4994.000000	40.833675
4992.000000	40.892864
4990.000000	40.952690
4988.000000	41.011649
4986.000000	41.070549
4984.000000	41.128599
4982.000000	41.187330
4980.000000	41.245703
4978.000000	41.304186
4976.000000	41.362510
4974.000000	41.421887
4972.000000	41.480842
4970.000000	41.540636
4968.000000	41.599565
4966.000000	41.657678
4964.000000	41.714351
4962.000000	41.771636
4960.000000	41.828257
4958.000000	41.885897
4956.000000	41.943558
4954.000000	42.002988
4952.000000	42.061090
4950.000000	42.117814
4948.000000	42.173274
4946.000000	42.231001
4944.000000	42.288673
4942.000000	42.345905
4940.000000	42.402416
4938.000000	42.458725
4936.000000	42.514677
4934.000000	42.572939
4932.000000	42.631118
4930.000000	42.688685
4928.000000	42.745423
4926.000000	42.803395
4924.000000	42.861252
4922.000000	42.919204
4920.000000	42.976470
4918.000000	43.035322
4916.000000	43.093733
4914.000000	43.151587
4912.000000	43.208521
4910.000000	43.266812
4908.000000	43.325199
4906.000000	43.384307
4904.000000	43.443200
4902.000000	43.501542
4900.000000	43.560183
4898.000000	43.621010
4896.000000	43.681509
4894.000000	43.741000
4892.000000	43.800354
4890.000000	43.861747
4888.000000	43.922652
4886.000000	43.982727
4884.000000	44.041155
4882.000000	44.100032
4880.000000	44.159126
4878.000000	44.219336
4876.000000	44.278694
4874.000000	44.338343
4872.000000	44.397861
4870.000000	44.457829
4868.000000	44.516012
4866.000000	44.574717
4864.000000	44.634249
4862.000000	44.693869
4860.000000	44.751421
4858.000000	44.809015
4856.000000	44.866772
4854.000000	44.925936
4852.000000	44.984506
4850.000000	45.043026
4848.000000	45.100982
4846.000000	45.159211
4844.000000	45.215976
4842.000000	45.273571
4840.000000	45.331512
4838.000000	45.390798
4836.000000	45.449741
4834.000000	45.509110
4832.000000	45.567355
4830.000000	45.625072
4828.000000	45.682037
4826.000000	45.740694
4824.000000	45.799455
4822.000000	45.858231
4820.000000	45.917060
4818.000000	45.976249
4816.000000	46.034115
4814.000000	46.093191
4812.000000	46.153257
4810.000000	46.214284
4808.000000	46.274191
4806.000000	46.334777
4804.000000	46.395720
4802.000000	46.456434
4800.000000	46.514846
4798.000000	46.575782
4796.000000	46.638763
4794.000000	46.700625
4792.000000	46.759266
4790.000000	46.819037
4788.000000	46.879626
4786.000000	46.940637
4784.000000	47.001247
4782.000000	47.062031
4780.000000	47.122218
4778.000000	47.183130
4776.000000	47.243561
4774.000000	47.303648
4772.000000	47.362466
4770.000000	47.422571
4768.000000	47.483387
4766.000000	47.544644
4764.000000	47.604025
4762.000000	47.662902
4760.000000	47.721376
4758.000000	47.781385
4756.000000	47.841076
4754.000000	47.899058
4752.000000	47.955359
4750.000000	48.014185
4748.000000	48.074441
4746.000000	48.135209
4744.000000	48.194208
4742.000000	48.252220
4740.000000	48.308924
4738.000000	48.366635
4736.000000	48.424594
4734.000000	48.484199
4732.000000	48.543882
4730.000000	48.603578
4728.000000	48.661617
4726.000000	48.720486
4724.000000	48.779872
4722.000000	48.840382
4720.000000	48.900881
4718.000000	48.962382
4716.000000	49.023567
4714.000000	49.085628
4712.000000	49.148105
4710.000000	49.212051
4708.000000	49.275618
4706.000000	49.339199
4704.000000	49.401793
4702.000000	49.464922
4700.000000	49.527421
4698.000000	49.591326
4696.000000	49.655433
4694.000000	49.719182
4692.000000	49.780237
4690.000000	49.841363
4688.000000	49.903150
4686.000000	49.965266
4684.000000	50.025180
4682.000000	50.086091
4680.000000	50.147986
4678.000000	50.210541
4676.000000	50.272291
4674.000000	50.335028
4672.000000	50.396513
4670.000000	50.457487
4668.000000	50.518048
4666.000000	50.580072
4664.000000	50.641589
4662.000000	50.703143
4660.000000	50.764269
4658.000000	50.826117
4656.000000	50.887061
4654.000000	50.948313
4652.000000	51.009674
4650.000000	51.072346
4648.000000	51.135002
4646.000000	51.197501
4644.000000	51.258327
4642.000000	51.319119
4640.000000	51.379727
4638.000000	51.440849
4636.000000	51.501427
4634.000000	51.562366
4632.000000	51.623423
4630.000000	51.685457
4628.000000	51.747328
4626.000000	51.810406
4624.000000	51.873115
4622.000000	51.934615
4620.000000	51.995921
4618.000000	52.060908
4616.000000	52.126481
4614.000000	52.189802
4612.000000	52.251118
4610.000000	52.315484
4608.000000	52.381393
4606.000000	52.446820
4604.000000	52.511066
4602.000000	52.576652
4600.000000	52.641768
4598.000000	52.707623
4596.000000	52.773818
4594.000000	52.840213
4592.000000	52.904754
4590.000000	52.969532
4588.000000	53.033330
4586.000000	53.097549
4584.000000	53.161135
4582.000000	53.226337
4580.000000	53.291384
4578.000000	53.356048
4576.000000	53.419825
4574.000000	53.485051
4572.000000	53.548911
4570.000000	53.612655
4568.000000	53.676285
4566.000000	53.739216
4564.000000	53.801576
4562.000000	53.866270
4560.000000	53.930577
4558.000000	53.993714
4556.000000	54.056083
4554.000000	54.119980
4552.000000	54.183958
4550.000000	54.247209
4548.000000	54.308999
4546.000000	54.372559
4544.000000	54.436505
4542.000000	54.499725
4540.000000	54.561688
4538.000000	54.625150
4536.000000	54.689270
4534.000000	54.754026
4532.000000	54.817897
4530.000000	54.881562
4528.000000	54.944482
4526.000000	55.008827
4524.000000	55.073901
4522.000000	55.139269
4520.000000	55.202404
4518.000000	55.264961
4516.000000	55.328537
4514.000000	55.394119
4512.000000	55.458992
4510.000000	55.523673
4508.000000	55.588582
4506.000000	55.655130
4504.000000	55.721427
4502.000000	55.788111
4500.000000	55.854521
4498.000000	55.920820
4496.000000	55.986232
4494.000000	56.053240
4492.000000	56.119745
4490.000000	56.185093
4488.000000	56.248597
4486.000000	56.313725
4484.000000	56.379918
4482.000000	56.445434
4480.000000	56.509502
4478.000000	56.574686
4476.000000	56.638555
4474.000000	56.701890
4472.000000	56.765382
4470.000000	56.829855
4468.000000	56.893315
4466.000000	56.955916
4464.000000	57.018268
4462.000000	57.082353
4460.000000	57.145215
4458.000000	57.207243
4456.000000	57.268667
4454.000000	57.330673
4452.000000	57.393034
4450.000000	57.456438
4448.000000	57.519511
4446.000000	57.583877
4444.000000	57.646189
4442.000000	57.707458
4440.000000	57.769327
4438.000000	57.833061
4436.000000	57.895829
4434.000000	57.959074
4432.000000	58.022244
4430.000000	58.085892
4428.000000	58.147814
4426.000000	58.210403
4424.000000	58.274626
4422.000000	58.340566
4420.000000	58.405474
4418.000000	58.469488
4416.000000	58.532683
4414.000000	58.597811
4412.000000	58.662831
4410.000000	58.727403
4408.000000	58.792265
4406.000000	58.859036
4404.000000	58.923981
4402.000000	58.987773
4400.000000	59.052047
4398.000000	59.117238
4396.000000	59.180673
4394.000000	59.243925
4392.000000	59.306164
4390.000000	59.368877
4388.000000	59.432540
4386.000000	59.496463
4384.000000	59.558622
4382.000000	59.621548
4380.000000	59.683489
4378.000000	59.743979
4376.000000	59.803138
4374.000000	59.863279
4372.000000	59.922544
4370.000000	59.981222
4368.000000	60.040835
4366.000000	60.104070
4364.000000	60.166646
4362.000000	60.227073
4360.000000	60.286503
4358.000000	60.348241
4356.000000	60.411291
4354.000000	60.475027
4352.000000	60.538027
4350.000000	60.601729
4348.000000	60.664891
4346.000000	60.728861
4344.000000	60.793951
4342.000000	60.859715
4340.000000	60.922758
4338.000000	60.985317
4336.000000	61.048217
4334.000000	61.111566
4332.000000	61.175205
4330.000000	61.241451
4328.000000	61.306865
4326.000000	61.371477
4324.000000	61.436583
4322.000000	61.503636
4320.000000	61.571434
4318.000000	61.640633
4316.000000	61.708129
4314.000000	61.774907
4312.000000	61.841812
4310.000000	61.910194
4308.000000	61.978871
4306.000000	62.047520
4304.000000	62.114073
4302.000000	62.181243
4300.000000	62.247755
4298.000000	62.312554
4296.000000	62.376135
4294.000000	62.441584
4292.000000	62.506200
