PE IR       SUBTECH     SPECTRUM    ASCII       PEDS        4.00        
   -1
TE110A_055_120K_BG.ASC
20/05/14
14:11:00.00
20/05/14
14:11:00.00
Administrator
TE110A.Thursday, May 14 2020, 003.
1000.000000
#HDR
-1
-1
#GR
cm-1
EGY
1.0
0.0
6000.000000
-2.000000
2501
8
105.590126
11.024359
#DATA
6000.000000	16.755472
5998.000000	16.788647
5996.000000	16.822311
5994.000000	16.856166
5992.000000	16.889449
5990.000000	16.922854
5988.000000	16.955066
5986.000000	16.987509
5984.000000	17.020176
5982.000000	17.053541
5980.000000	17.087413
5978.000000	17.121600
5976.000000	17.155678
5974.000000	17.190213
5972.000000	17.224446
5970.000000	17.258275
5968.000000	17.292672
5966.000000	17.327116
5964.000000	17.361134
5962.000000	17.395176
5960.000000	17.428744
5958.000000	17.463484
5956.000000	17.498862
5954.000000	17.534253
5952.000000	17.568685
5950.000000	17.601429
5948.000000	17.634005
5946.000000	17.668957
5944.000000	17.704472
5942.000000	17.739480
5940.000000	17.772193
5938.000000	17.805367
5936.000000	17.839483
5934.000000	17.874185
5932.000000	17.908245
5930.000000	17.942213
5928.000000	17.977225
5926.000000	18.011845
5924.000000	18.046272
5922.000000	18.082011
5920.000000	18.118087
5918.000000	18.154680
5916.000000	18.190573
5914.000000	18.226752
5912.000000	18.263772
5910.000000	18.300257
5908.000000	18.336916
5906.000000	18.374514
5904.000000	18.411799
5902.000000	18.449315
5900.000000	18.485663
5898.000000	18.521537
5896.000000	18.558294
5894.000000	18.595585
5892.000000	18.632142
5890.000000	18.667713
5888.000000	18.702967
5886.000000	18.739615
5884.000000	18.776106
5882.000000	18.812430
5880.000000	18.847682
5878.000000	18.883543
5876.000000	18.920149
5874.000000	18.957414
5872.000000	18.993955
5870.000000	19.030171
5868.000000	19.066490
5866.000000	19.104134
5864.000000	19.142057
5862.000000	19.179960
5860.000000	19.218525
5858.000000	19.257149
5856.000000	19.294419
5854.000000	19.331537
5852.000000	19.369547
5850.000000	19.409789
5848.000000	19.450512
5846.000000	19.490197
5844.000000	19.530256
5842.000000	19.570752
5840.000000	19.611999
5838.000000	19.653685
5836.000000	19.696233
5834.000000	19.739055
5832.000000	19.779916
5830.000000	19.820267
5828.000000	19.860709
5826.000000	19.902265
5824.000000	19.944114
5822.000000	19.986357
5820.000000	20.029256
5818.000000	20.070986
5816.000000	20.110422
5814.000000	20.149756
5812.000000	20.190063
5810.000000	20.232033
5808.000000	20.273289
5806.000000	20.313711
5804.000000	20.354681
5802.000000	20.395733
5800.000000	20.436263
5798.000000	20.476191
5796.000000	20.516767
5794.000000	20.558685
5792.000000	20.600252
5790.000000	20.641631
5788.000000	20.683392
5786.000000	20.725329
5784.000000	20.766173
5782.000000	20.807582
5780.000000	20.848991
5778.000000	20.891839
5776.000000	20.933084
5774.000000	20.974650
5772.000000	21.017549
5770.000000	21.059956
5768.000000	21.101400
5766.000000	21.143407
5764.000000	21.186402
5762.000000	21.229272
5760.000000	21.270493
5758.000000	21.311625
5756.000000	21.353942
5754.000000	21.396632
5752.000000	21.439046
5750.000000	21.481122
5748.000000	21.522852
5746.000000	21.564438
5744.000000	21.605507
5742.000000	21.646063
5740.000000	21.686040
5738.000000	21.726493
5736.000000	21.767177
5734.000000	21.807849
5732.000000	21.848297
5730.000000	21.889299
5728.000000	21.930881
5726.000000	21.972377
5724.000000	22.013788
5722.000000	22.055376
5720.000000	22.097671
5718.000000	22.141285
5716.000000	22.185367
5714.000000	22.229712
5712.000000	22.274182
5710.000000	22.317838
5708.000000	22.360811
5706.000000	22.404016
5704.000000	22.448577
5702.000000	22.493437
5700.000000	22.537325
5698.000000	22.580891
5696.000000	22.625402
5694.000000	22.671092
5692.000000	22.716995
5690.000000	22.762757
5688.000000	22.808492
5686.000000	22.853920
5684.000000	22.899834
5682.000000	22.945658
5680.000000	22.990863
5678.000000	23.036421
5676.000000	23.082406
5674.000000	23.128817
5672.000000	23.175054
5670.000000	23.221075
5668.000000	23.266171
5666.000000	23.310829
5664.000000	23.355468
5662.000000	23.400992
5660.000000	23.446654
5658.000000	23.492446
5656.000000	23.538000
5654.000000	23.584133
5652.000000	23.630162
5650.000000	23.676132
5648.000000	23.721855
5646.000000	23.767258
5644.000000	23.813140
5642.000000	23.858981
5640.000000	23.903881
5638.000000	23.948990
5636.000000	23.994302
5634.000000	24.040300
5632.000000	24.085348
5630.000000	24.129851
5628.000000	24.175594
5626.000000	24.222694
5624.000000	24.269517
5622.000000	24.315428
5620.000000	24.360907
5618.000000	24.406237
5616.000000	24.451130
5614.000000	24.496557
5612.000000	24.542483
5610.000000	24.588785
5608.000000	24.634189
5606.000000	24.679176
5604.000000	24.724713
5602.000000	24.770425
5600.000000	24.816641
5598.000000	24.862830
5596.000000	24.909274
5594.000000	24.956537
5592.000000	25.004000
5590.000000	25.051278
5588.000000	25.097528
5586.000000	25.144522
5584.000000	25.191530
5582.000000	25.238614
5580.000000	25.285532
5578.000000	25.333277
5576.000000	25.382114
5574.000000	25.429881
5572.000000	25.477043
5570.000000	25.524371
5568.000000	25.572340
5566.000000	25.620648
5564.000000	25.668805
5562.000000	25.716873
5560.000000	25.764517
5558.000000	25.811668
5556.000000	25.858500
5554.000000	25.905806
5552.000000	25.953101
5550.000000	26.000723
5548.000000	26.047703
5546.000000	26.095449
5544.000000	26.143877
5542.000000	26.191786
5540.000000	26.237379
5538.000000	26.283682
5536.000000	26.331351
5534.000000	26.380773
5532.000000	26.429766
5530.000000	26.478501
5528.000000	26.527224
5526.000000	26.574040
5524.000000	26.619876
5522.000000	26.666431
5520.000000	26.713435
5518.000000	26.761605
5516.000000	26.810692
5514.000000	26.860536
5512.000000	26.906834
5510.000000	26.949851
5508.000000	26.994283
5506.000000	27.043264
5504.000000	27.095233
5502.000000	27.145600
5500.000000	27.194628
5498.000000	27.240145
5496.000000	27.279986
5494.000000	27.320085
5492.000000	27.365306
5490.000000	27.418517
5488.000000	27.474524
5486.000000	27.530137
5484.000000	27.585296
5482.000000	27.637490
5480.000000	27.680931
5478.000000	27.715755
5476.000000	27.755226
5474.000000	27.808401
5472.000000	27.867591
5470.000000	27.920759
5468.000000	27.967471
5466.000000	28.012300
5464.000000	28.055036
5462.000000	28.100975
5460.000000	28.154848
5458.000000	28.214335
5456.000000	28.271700
5454.000000	28.321326
5452.000000	28.363032
5450.000000	28.399687
5448.000000	28.436526
5446.000000	28.480375
5444.000000	28.528224
5442.000000	28.584301
5440.000000	28.640956
5438.000000	28.690120
5436.000000	28.735132
5434.000000	28.780023
5432.000000	28.823836
5430.000000	28.868867
5428.000000	28.925437
5426.000000	28.995243
5424.000000	29.061565
5422.000000	29.117026
5420.000000	29.164977
5418.000000	29.198045
5416.000000	29.220046
5414.000000	29.248487
5412.000000	29.297992
5410.000000	29.366771
5408.000000	29.436156
5406.000000	29.498631
5404.000000	29.553517
5402.000000	29.605440
5400.000000	29.651364
5398.000000	29.685960
5396.000000	29.716594
5394.000000	29.762771
5392.000000	29.827106
5390.000000	29.890365
5388.000000	29.937219
5386.000000	29.982842
5384.000000	30.040284
5382.000000	30.098920
5380.000000	30.139616
5378.000000	30.174199
5376.000000	30.223679
5374.000000	30.292082
5372.000000	30.362112
5370.000000	30.421406
5368.000000	30.469730
5366.000000	30.514312
5364.000000	30.562707
5362.000000	30.617439
5360.000000	30.671042
5358.000000	30.711502
5356.000000	30.741230
5354.000000	30.779327
5352.000000	30.833777
5350.000000	30.891081
5348.000000	30.929251
5346.000000	30.963319
5344.000000	31.012017
5342.000000	31.065999
5340.000000	31.113513
5338.000000	31.165188
5336.000000	31.232808
5334.000000	31.302310
5332.000000	31.356765
5330.000000	31.401003
5328.000000	31.449444
5326.000000	31.508507
5324.000000	31.573473
5322.000000	31.633087
5320.000000	31.685064
5318.000000	31.734244
5316.000000	31.784416
5314.000000	31.836692
5312.000000	31.884571
5310.000000	31.926429
5308.000000	31.971547
5306.000000	32.026367
5304.000000	32.084653
5302.000000	32.138963
5300.000000	32.191596
5298.000000	32.246078
5296.000000	32.297683
5294.000000	32.340929
5292.000000	32.381083
5290.000000	32.428514
5288.000000	32.483374
5286.000000	32.540872
5284.000000	32.595689
5282.000000	32.651372
5280.000000	32.707481
5278.000000	32.764613
5276.000000	32.821047
5274.000000	32.874072
5272.000000	32.921358
5270.000000	32.964481
5268.000000	33.001244
5266.000000	33.035905
5264.000000	33.080440
5262.000000	33.144152
5260.000000	33.214406
5258.000000	33.268976
5256.000000	33.314693
5254.000000	33.365998
5252.000000	33.416976
5250.000000	33.458497
5248.000000	33.497704
5246.000000	33.551124
5244.000000	33.618445
5242.000000	33.688555
5240.000000	33.753558
5238.000000	33.808954
5236.000000	33.857416
5234.000000	33.903222
5232.000000	33.951800
5230.000000	33.999195
5228.000000	34.039862
5226.000000	34.084048
5224.000000	34.142539
5222.000000	34.207531
5220.000000	34.265861
5218.000000	34.321519
5216.000000	34.378947
5214.000000	34.432934
5212.000000	34.474207
5210.000000	34.503992
5208.000000	34.538900
5206.000000	34.596393
5204.000000	34.671295
5202.000000	34.741688
5200.000000	34.795333
5198.000000	34.843792
5196.000000	34.898687
5194.000000	34.958951
5192.000000	35.015009
5190.000000	35.065725
5188.000000	35.113590
5186.000000	35.164656
5184.000000	35.221316
5182.000000	35.282108
5180.000000	35.340702
5178.000000	35.397371
5176.000000	35.454147
5174.000000	35.509031
5172.000000	35.562259
5170.000000	35.616871
5168.000000	35.672168
5166.000000	35.724802
5164.000000	35.776540
5162.000000	35.830917
5160.000000	35.886175
5158.000000	35.940684
5156.000000	35.996054
5154.000000	36.053729
5152.000000	36.110622
5150.000000	36.166353
5148.000000	36.221410
5146.000000	36.274581
5144.000000	36.326360
5142.000000	36.379379
5140.000000	36.434724
5138.000000	36.490825
5136.000000	36.545636
5134.000000	36.600446
5132.000000	36.654821
5130.000000	36.709864
5128.000000	36.764566
5126.000000	36.818856
5124.000000	36.872199
5122.000000	36.924592
5120.000000	36.976852
5118.000000	37.030794
5116.000000	37.086432
5114.000000	37.143097
5112.000000	37.198862
5110.000000	37.254393
5108.000000	37.309318
5106.000000	37.364639
5104.000000	37.419801
5102.000000	37.475350
5100.000000	37.530680
5098.000000	37.585965
5096.000000	37.641332
5094.000000	37.698085
5092.000000	37.756170
5090.000000	37.813935
5088.000000	37.870835
5086.000000	37.928094
5084.000000	37.985186
5082.000000	38.041431
5080.000000	38.097537
5078.000000	38.155134
5076.000000	38.212618
5074.000000	38.269168
5072.000000	38.325764
5070.000000	38.383297
5068.000000	38.439513
5066.000000	38.495058
5064.000000	38.551199
5062.000000	38.608645
5060.000000	38.665448
5058.000000	38.721428
5056.000000	38.776778
5054.000000	38.832389
5052.000000	38.889023
5050.000000	38.947209
5048.000000	39.004645
5046.000000	39.060090
5044.000000	39.114052
5042.000000	39.169626
5040.000000	39.226044
5038.000000	39.282119
5036.000000	39.337347
5034.000000	39.393633
5032.000000	39.450613
5030.000000	39.507556
5028.000000	39.563257
5026.000000	39.618515
5024.000000	39.673517
5022.000000	39.730120
5020.000000	39.787652
5018.000000	39.844873
5016.000000	39.901174
5014.000000	39.958084
5012.000000	40.014704
5010.000000	40.071539
5008.000000	40.128304
5006.000000	40.185951
5004.000000	40.243731
5002.000000	40.302499
5000.000000	40.360523
4998.000000	40.417840
4996.000000	40.474599
4994.000000	40.531522
4992.000000	40.588796
4990.000000	40.647934
4988.000000	40.707878
4986.000000	40.767008
4984.000000	40.824848
4982.000000	40.883798
4980.000000	40.942966
4978.000000	41.001871
4976.000000	41.059963
4974.000000	41.117463
4972.000000	41.174222
4970.000000	41.231933
4968.000000	41.290398
4966.000000	41.348501
4964.000000	41.405876
4962.000000	41.464037
4960.000000	41.522469
4958.000000	41.580284
4956.000000	41.636646
4954.000000	41.693110
4952.000000	41.750188
4950.000000	41.808105
4948.000000	41.865744
4946.000000	41.923020
4944.000000	41.979468
4942.000000	42.035852
4940.000000	42.091822
4938.000000	42.148188
4936.000000	42.205060
4934.000000	42.263047
4932.000000	42.320353
4930.000000	42.376318
4928.000000	42.432258
4926.000000	42.490271
4924.000000	42.549082
4922.000000	42.607019
4920.000000	42.663478
4918.000000	42.720638
4916.000000	42.778743
4914.000000	42.837681
4912.000000	42.896019
4910.000000	42.953617
4908.000000	43.010600
4906.000000	43.068470
4904.000000	43.127334
4902.000000	43.186817
4900.000000	43.246282
4898.000000	43.306035
4896.000000	43.364785
4894.000000	43.423662
4892.000000	43.483360
4890.000000	43.543958
4888.000000	43.603218
4886.000000	43.662028
4884.000000	43.721913
4882.000000	43.782947
4880.000000	43.842457
4878.000000	43.901147
4876.000000	43.959867
4874.000000	44.019661
4872.000000	44.078937
4870.000000	44.137874
4868.000000	44.196174
4866.000000	44.254844
4864.000000	44.313423
4862.000000	44.372135
4860.000000	44.430367
4858.000000	44.488598
4856.000000	44.546628
4854.000000	44.604603
4852.000000	44.662085
4850.000000	44.719880
4848.000000	44.776953
4846.000000	44.834099
4844.000000	44.892346
4842.000000	44.951692
4840.000000	45.009474
4838.000000	45.067317
4836.000000	45.125238
4834.000000	45.182706
4832.000000	45.239132
4830.000000	45.297465
4828.000000	45.356203
4826.000000	45.414060
4824.000000	45.471351
4822.000000	45.530530
4820.000000	45.590005
4818.000000	45.648838
4816.000000	45.706999
4814.000000	45.765874
4812.000000	45.825625
4810.000000	45.885363
4808.000000	45.943942
4806.000000	46.003372
4804.000000	46.063548
4802.000000	46.124544
4800.000000	46.185449
4798.000000	46.245788
4796.000000	46.304924
4794.000000	46.365904
4792.000000	46.427578
4790.000000	46.488469
4788.000000	46.548272
4786.000000	46.609144
4784.000000	46.670759
4782.000000	46.731981
4780.000000	46.791392
4778.000000	46.850584
4776.000000	46.909890
4774.000000	46.970544
4772.000000	47.031616
4770.000000	47.092226
4768.000000	47.151707
4766.000000	47.211754
4764.000000	47.270697
4762.000000	47.328776
4760.000000	47.386975
4758.000000	47.445950
4756.000000	47.503940
4754.000000	47.562584
4752.000000	47.621679
4750.000000	47.680250
4748.000000	47.737613
4746.000000	47.795638
4744.000000	47.853997
4742.000000	47.913208
4740.000000	47.972263
4738.000000	48.030309
4736.000000	48.087212
4734.000000	48.144766
4732.000000	48.202766
4730.000000	48.262139
4728.000000	48.322127
4726.000000	48.382047
4724.000000	48.440564
4722.000000	48.498863
4720.000000	48.557571
4718.000000	48.619050
4716.000000	48.682399
4714.000000	48.745500
4712.000000	48.807025
4710.000000	48.869731
4708.000000	48.933304
4706.000000	48.996380
4704.000000	49.058066
4702.000000	49.120994
4700.000000	49.185292
4698.000000	49.249675
4696.000000	49.311965
4694.000000	49.373269
4692.000000	49.434045
4690.000000	49.495591
4688.000000	49.557487
4686.000000	49.619527
4684.000000	49.680627
4682.000000	49.741449
4680.000000	49.802093
4678.000000	49.863711
4676.000000	49.925456
4674.000000	49.987587
4672.000000	50.049484
4670.000000	50.111980
4668.000000	50.173518
4666.000000	50.234398
4664.000000	50.294157
4662.000000	50.354602
4660.000000	50.415863
4658.000000	50.477819
4656.000000	50.538566
4654.000000	50.599763
4652.000000	50.661638
4650.000000	50.723363
4648.000000	50.783837
4646.000000	50.845036
4644.000000	50.906054
4642.000000	50.966372
4640.000000	51.027220
4638.000000	51.089905
4636.000000	51.151492
4634.000000	51.211959
4632.000000	51.272593
4630.000000	51.333902
4628.000000	51.395010
4626.000000	51.457181
4624.000000	51.518760
4622.000000	51.580863
4620.000000	51.643711
4618.000000	51.707431
4616.000000	51.769898
4614.000000	51.832927
4612.000000	51.896951
4610.000000	51.962495
4608.000000	52.027692
4606.000000	52.093166
4604.000000	52.158173
4602.000000	52.223153
4600.000000	52.287621
4598.000000	52.352176
4596.000000	52.415707
4594.000000	52.480593
4592.000000	52.546538
4590.000000	52.612206
4588.000000	52.675962
4586.000000	52.740090
4584.000000	52.804080
4582.000000	52.868369
4580.000000	52.932511
4578.000000	52.997343
4576.000000	53.062103
4574.000000	53.127393
4572.000000	53.191726
4570.000000	53.255458
4568.000000	53.318040
4566.000000	53.381070
4564.000000	53.444888
4562.000000	53.509634
4560.000000	53.572673
4558.000000	53.635116
4556.000000	53.697512
4554.000000	53.760313
4552.000000	53.822254
4550.000000	53.884991
4548.000000	53.947950
4546.000000	54.011239
4544.000000	54.073798
4542.000000	54.136240
4540.000000	54.197329
4538.000000	54.259684
4536.000000	54.323235
4534.000000	54.386698
4532.000000	54.449558
4530.000000	54.513974
4528.000000	54.577785
4526.000000	54.640468
4524.000000	54.703635
4522.000000	54.768148
4520.000000	54.831911
4518.000000	54.895800
4516.000000	54.960601
4514.000000	55.025857
4512.000000	55.091067
4510.000000	55.156977
4508.000000	55.222244
4506.000000	55.286876
4504.000000	55.351540
4502.000000	55.417716
4500.000000	55.483831
4498.000000	55.549558
4496.000000	55.615452
4494.000000	55.682670
4492.000000	55.748644
4490.000000	55.814143
4488.000000	55.879269
4486.000000	55.944056
4484.000000	56.007970
4482.000000	56.072908
4480.000000	56.137142
4478.000000	56.201163
4476.000000	56.264724
4474.000000	56.328199
4472.000000	56.391339
4470.000000	56.455180
4468.000000	56.518322
4466.000000	56.581866
4464.000000	56.644847
4462.000000	56.707494
4460.000000	56.769939
4458.000000	56.832428
4456.000000	56.893588
4454.000000	56.955036
4452.000000	57.016718
4450.000000	57.079144
4448.000000	57.141121
4446.000000	57.203243
4444.000000	57.265210
4442.000000	57.328207
4440.000000	57.391241
4438.000000	57.454414
4436.000000	57.517259
4434.000000	57.580971
4432.000000	57.644138
4430.000000	57.707712
4428.000000	57.771469
4426.000000	57.835196
4424.000000	57.898126
4422.000000	57.961689
4420.000000	58.025263
4418.000000	58.089376
4416.000000	58.153262
4414.000000	58.217827
4412.000000	58.282359
4410.000000	58.346856
4408.000000	58.410877
4406.000000	58.476067
4404.000000	58.540836
4402.000000	58.605152
4400.000000	58.668787
4398.000000	58.733143
4396.000000	58.797292
4394.000000	58.861055
4392.000000	58.923742
4390.000000	58.986958
4388.000000	59.049028
4386.000000	59.111057
4384.000000	59.173203
4382.000000	59.234992
4380.000000	59.295464
4378.000000	59.357067
4376.000000	59.418540
4374.000000	59.479033
4372.000000	59.538272
4370.000000	59.598429
4368.000000	59.658458
4366.000000	59.718796
4364.000000	59.778549
4362.000000	59.838965
4360.000000	59.900034
4358.000000	59.962073
4356.000000	60.024003
4354.000000	60.087189
4352.000000	60.150160
4350.000000	60.213654
4348.000000	60.277277
4346.000000	60.340604
4344.000000	60.404022
4342.000000	60.468551
4340.000000	60.530903
4338.000000	60.593150
4336.000000	60.657457
4334.000000	60.722716
4332.000000	60.786113
4330.000000	60.849877
4328.000000	60.914976
4326.000000	60.981244
4324.000000	61.046562
4322.000000	61.112172
4320.000000	61.178033
4318.000000	61.245455
4316.000000	61.314011
4314.000000	61.383447
4312.000000	61.450670
4310.000000	61.516769
4308.000000	61.582873
4306.000000	61.649825
4304.000000	61.716458
4302.000000	61.783995
4300.000000	61.850858
4298.000000	61.917386
4296.000000	61.982526
4294.000000	62.046963
4292.000000	62.110529
