PE IR       SUBTECH     SPECTRUM    ASCII       PEDS        4.00        
   -1
TE110A_071_130K_SB.ASC
20/05/14
15:05:34.00
20/05/14
15:05:34.00
Administrator
TE110A.Thursday, May 14 2020, 002.
1000.000000
#HDR
-1
-1
#GR
cm-1
EGY
1.0
0.0
6000.000000
-2.000000
2501
8
4.967191
0.506839
#DATA
6000.000000	0.822688
5998.000000	0.823763
5996.000000	0.827149
5994.000000	0.830416
5992.000000	0.832134
5990.000000	0.833445
5988.000000	0.835191
5986.000000	0.837233
5984.000000	0.839092
5982.000000	0.840787
5980.000000	0.841984
5978.000000	0.843264
5976.000000	0.845472
5974.000000	0.847551
5972.000000	0.849624
5970.000000	0.852163
5968.000000	0.853840
5966.000000	0.855150
5964.000000	0.855511
5962.000000	0.856372
5960.000000	0.857810
5958.000000	0.858784
5956.000000	0.860292
5954.000000	0.862061
5952.000000	0.864396
5950.000000	0.866733
5948.000000	0.869294
5946.000000	0.872654
5944.000000	0.874686
5942.000000	0.875035
5940.000000	0.875261
5938.000000	0.876282
5936.000000	0.878574
5934.000000	0.880323
5932.000000	0.882226
5930.000000	0.883966
5928.000000	0.884764
5926.000000	0.885324
5924.000000	0.887212
5922.000000	0.890734
5920.000000	0.893060
5918.000000	0.893698
5916.000000	0.894320
5914.000000	0.897122
5912.000000	0.900195
5910.000000	0.901779
5908.000000	0.903053
5906.000000	0.905176
5904.000000	0.907765
5902.000000	0.909536
5900.000000	0.911176
5898.000000	0.912578
5896.000000	0.913617
5894.000000	0.914427
5892.000000	0.916675
5890.000000	0.919718
5888.000000	0.922034
5886.000000	0.923598
5884.000000	0.924690
5882.000000	0.926697
5880.000000	0.928407
5878.000000	0.929832
5876.000000	0.932093
5874.000000	0.933904
5872.000000	0.936341
5870.000000	0.938209
5868.000000	0.939679
5866.000000	0.941863
5864.000000	0.943473
5862.000000	0.944789
5860.000000	0.946077
5858.000000	0.948048
5856.000000	0.951361
5854.000000	0.954545
5852.000000	0.956143
5850.000000	0.957445
5848.000000	0.958490
5846.000000	0.959816
5844.000000	0.961964
5842.000000	0.964787
5840.000000	0.967882
5838.000000	0.970285
5836.000000	0.971409
5834.000000	0.972757
5832.000000	0.974706
5830.000000	0.976816
5828.000000	0.978954
5826.000000	0.980642
5824.000000	0.982982
5822.000000	0.985488
5820.000000	0.987502
5818.000000	0.988923
5816.000000	0.990572
5814.000000	0.993196
5812.000000	0.995962
5810.000000	0.998120
5808.000000	0.999241
5806.000000	0.999880
5804.000000	1.001723
5802.000000	1.004513
5800.000000	1.006253
5798.000000	1.007307
5796.000000	1.008538
5794.000000	1.010762
5792.000000	1.013488
5790.000000	1.015451
5788.000000	1.017866
5786.000000	1.020494
5784.000000	1.021861
5782.000000	1.023324
5780.000000	1.025398
5778.000000	1.028392
5776.000000	1.031577
5774.000000	1.034453
5772.000000	1.036944
5770.000000	1.039091
5768.000000	1.040920
5766.000000	1.043093
5764.000000	1.044764
5762.000000	1.046158
5760.000000	1.048211
5758.000000	1.049696
5756.000000	1.050241
5754.000000	1.051657
5752.000000	1.054089
5750.000000	1.058020
5748.000000	1.060566
5746.000000	1.062615
5744.000000	1.064465
5742.000000	1.065738
5740.000000	1.068097
5738.000000	1.070839
5736.000000	1.073706
5734.000000	1.076539
5732.000000	1.079114
5730.000000	1.081662
5728.000000	1.083895
5726.000000	1.084967
5724.000000	1.086009
5722.000000	1.086767
5720.000000	1.089161
5718.000000	1.092021
5716.000000	1.094480
5714.000000	1.096576
5712.000000	1.098325
5710.000000	1.100383
5708.000000	1.101988
5706.000000	1.104020
5704.000000	1.106700
5702.000000	1.109243
5700.000000	1.110470
5698.000000	1.110866
5696.000000	1.112864
5694.000000	1.116317
5692.000000	1.118805
5690.000000	1.120003
5688.000000	1.122496
5686.000000	1.127175
5684.000000	1.131029
5682.000000	1.133309
5680.000000	1.134422
5678.000000	1.136476
5676.000000	1.138650
5674.000000	1.139962
5672.000000	1.141250
5670.000000	1.142944
5668.000000	1.145679
5666.000000	1.148205
5664.000000	1.150087
5662.000000	1.152239
5660.000000	1.155330
5658.000000	1.158196
5656.000000	1.160158
5654.000000	1.161787
5652.000000	1.163965
5650.000000	1.166047
5648.000000	1.167412
5646.000000	1.169195
5644.000000	1.172010
5642.000000	1.175710
5640.000000	1.178689
5638.000000	1.180385
5636.000000	1.182669
5634.000000	1.185227
5632.000000	1.188201
5630.000000	1.190599
5628.000000	1.192725
5626.000000	1.194556
5624.000000	1.195936
5622.000000	1.197561
5620.000000	1.200397
5618.000000	1.203472
5616.000000	1.206119
5614.000000	1.207854
5612.000000	1.209216
5610.000000	1.211275
5608.000000	1.214042
5606.000000	1.217214
5604.000000	1.219315
5602.000000	1.220573
5600.000000	1.222173
5598.000000	1.224116
5596.000000	1.226975
5594.000000	1.229823
5592.000000	1.232341
5590.000000	1.234224
5588.000000	1.235878
5586.000000	1.238185
5584.000000	1.240777
5582.000000	1.243691
5580.000000	1.246830
5578.000000	1.249484
5576.000000	1.251376
5574.000000	1.253210
5572.000000	1.255012
5570.000000	1.256525
5568.000000	1.257422
5566.000000	1.260243
5564.000000	1.264508
5562.000000	1.268559
5560.000000	1.271529
5558.000000	1.273641
5556.000000	1.275454
5554.000000	1.276736
5552.000000	1.278857
5550.000000	1.281962
5548.000000	1.284671
5546.000000	1.286213
5544.000000	1.287945
5542.000000	1.290435
5540.000000	1.292871
5538.000000	1.294906
5536.000000	1.296982
5534.000000	1.299150
5532.000000	1.301583
5530.000000	1.303654
5528.000000	1.306173
5526.000000	1.308861
5524.000000	1.310883
5522.000000	1.312854
5520.000000	1.314998
5518.000000	1.318422
5516.000000	1.321612
5514.000000	1.324262
5512.000000	1.326356
5510.000000	1.328770
5508.000000	1.331064
5506.000000	1.332838
5504.000000	1.334489
5502.000000	1.336577
5500.000000	1.339667
5498.000000	1.342533
5496.000000	1.344983
5494.000000	1.346621
5492.000000	1.347863
5490.000000	1.350027
5488.000000	1.352864
5486.000000	1.355878
5484.000000	1.358668
5482.000000	1.361167
5480.000000	1.364542
5478.000000	1.367035
5476.000000	1.369590
5474.000000	1.371733
5472.000000	1.374482
5470.000000	1.377338
5468.000000	1.379657
5466.000000	1.380955
5464.000000	1.382648
5462.000000	1.385606
5460.000000	1.388901
5458.000000	1.391024
5456.000000	1.392114
5454.000000	1.394141
5452.000000	1.397538
5450.000000	1.400102
5448.000000	1.402043
5446.000000	1.404200
5444.000000	1.406664
5442.000000	1.408324
5440.000000	1.409443
5438.000000	1.412280
5436.000000	1.415559
5434.000000	1.417771
5432.000000	1.419740
5430.000000	1.422279
5428.000000	1.425042
5426.000000	1.427867
5424.000000	1.431354
5422.000000	1.435025
5420.000000	1.438212
5418.000000	1.440468
5416.000000	1.441760
5414.000000	1.441456
5412.000000	1.441681
5410.000000	1.444205
5408.000000	1.447791
5406.000000	1.451803
5404.000000	1.455547
5402.000000	1.459548
5400.000000	1.462613
5398.000000	1.464567
5396.000000	1.465328
5394.000000	1.466220
5392.000000	1.468657
5390.000000	1.472313
5388.000000	1.475608
5386.000000	1.478381
5384.000000	1.481382
5382.000000	1.484750
5380.000000	1.487557
5378.000000	1.488937
5376.000000	1.489183
5374.000000	1.489487
5372.000000	1.492171
5370.000000	1.496585
5368.000000	1.500565
5366.000000	1.503016
5364.000000	1.505512
5362.000000	1.509392
5360.000000	1.512606
5358.000000	1.513878
5356.000000	1.514644
5354.000000	1.516535
5352.000000	1.519155
5350.000000	1.522172
5348.000000	1.525093
5346.000000	1.526990
5344.000000	1.528488
5342.000000	1.530701
5340.000000	1.534000
5338.000000	1.536326
5336.000000	1.538852
5334.000000	1.542653
5332.000000	1.547056
5330.000000	1.550112
5328.000000	1.551505
5326.000000	1.552313
5324.000000	1.554215
5322.000000	1.557337
5320.000000	1.560944
5318.000000	1.563982
5316.000000	1.566645
5314.000000	1.569039
5312.000000	1.571763
5310.000000	1.575299
5308.000000	1.578323
5306.000000	1.579842
5304.000000	1.581360
5302.000000	1.583707
5300.000000	1.586254
5298.000000	1.588576
5296.000000	1.591280
5294.000000	1.593894
5292.000000	1.595701
5290.000000	1.598044
5288.000000	1.601039
5286.000000	1.604081
5284.000000	1.606946
5282.000000	1.609511
5280.000000	1.612607
5278.000000	1.615529
5276.000000	1.617989
5274.000000	1.619823
5272.000000	1.622854
5270.000000	1.625943
5268.000000	1.627378
5266.000000	1.628321
5264.000000	1.629973
5262.000000	1.631744
5260.000000	1.633512
5258.000000	1.637380
5256.000000	1.641973
5254.000000	1.644458
5252.000000	1.645800
5250.000000	1.647973
5248.000000	1.650272
5246.000000	1.651955
5244.000000	1.655481
5242.000000	1.660197
5240.000000	1.663871
5238.000000	1.665787
5236.000000	1.668266
5234.000000	1.670760
5232.000000	1.672735
5230.000000	1.675125
5228.000000	1.677521
5226.000000	1.679643
5224.000000	1.681987
5222.000000	1.684973
5220.000000	1.687481
5218.000000	1.689712
5216.000000	1.692925
5214.000000	1.696272
5212.000000	1.699016
5210.000000	1.700288
5208.000000	1.701342
5206.000000	1.702932
5204.000000	1.706139
5202.000000	1.710551
5200.000000	1.714847
5198.000000	1.717729
5196.000000	1.719519
5194.000000	1.721855
5192.000000	1.724310
5190.000000	1.726376
5188.000000	1.728959
5186.000000	1.731883
5184.000000	1.734486
5182.000000	1.736475
5180.000000	1.739537
5178.000000	1.743136
5176.000000	1.746674
5174.000000	1.750147
5172.000000	1.752957
5170.000000	1.754867
5168.000000	1.756803
5166.000000	1.759399
5164.000000	1.762535
5162.000000	1.765363
5160.000000	1.767930
5158.000000	1.770363
5156.000000	1.772372
5154.000000	1.774316
5152.000000	1.776600
5150.000000	1.779678
5148.000000	1.782925
5146.000000	1.784822
5144.000000	1.786858
5142.000000	1.789192
5140.000000	1.792297
5138.000000	1.795065
5136.000000	1.797664
5134.000000	1.801377
5132.000000	1.805649
5130.000000	1.809022
5128.000000	1.810232
5126.000000	1.811467
5124.000000	1.813834
5122.000000	1.816422
5120.000000	1.818822
5118.000000	1.821124
5116.000000	1.824009
5114.000000	1.827693
5112.000000	1.831272
5110.000000	1.832761
5108.000000	1.833266
5106.000000	1.835988
5104.000000	1.840902
5102.000000	1.844639
5100.000000	1.847181
5098.000000	1.849818
5096.000000	1.852526
5094.000000	1.854492
5092.000000	1.857060
5090.000000	1.859434
5088.000000	1.861442
5086.000000	1.864217
5084.000000	1.867859
5082.000000	1.870409
5080.000000	1.872362
5078.000000	1.875430
5076.000000	1.879182
5074.000000	1.882888
5072.000000	1.886338
5070.000000	1.888875
5068.000000	1.890242
5066.000000	1.891618
5064.000000	1.893961
5062.000000	1.897516
5060.000000	1.900936
5058.000000	1.903725
5056.000000	1.906115
5054.000000	1.908868
5052.000000	1.911573
5050.000000	1.913879
5048.000000	1.916703
5046.000000	1.919802
5044.000000	1.923343
5042.000000	1.926702
5040.000000	1.928891
5038.000000	1.930994
5036.000000	1.934038
5034.000000	1.937462
5032.000000	1.939285
5030.000000	1.941272
5028.000000	1.944336
5026.000000	1.947207
5024.000000	1.949206
5022.000000	1.951226
5020.000000	1.953697
5018.000000	1.956490
5016.000000	1.959068
5014.000000	1.961281
5012.000000	1.964074
5010.000000	1.967707
5008.000000	1.970909
5006.000000	1.973271
5004.000000	1.976548
5002.000000	1.980624
5000.000000	1.983401
4998.000000	1.984788
4996.000000	1.987066
4994.000000	1.990578
4992.000000	1.993598
4990.000000	1.996081
4988.000000	1.999039
4986.000000	2.001579
4984.000000	2.003423
4982.000000	2.006294
4980.000000	2.009995
4978.000000	2.013191
4976.000000	2.015361
4974.000000	2.017788
4972.000000	2.020796
4970.000000	2.023658
4968.000000	2.025747
4966.000000	2.028232
4964.000000	2.032046
4962.000000	2.035541
4960.000000	2.037921
4958.000000	2.039597
4956.000000	2.041187
4954.000000	2.043801
4952.000000	2.047859
4950.000000	2.051451
4948.000000	2.053623
4946.000000	2.055321
4944.000000	2.058199
4942.000000	2.061301
4940.000000	2.064436
4938.000000	2.067255
4936.000000	2.070110
4934.000000	2.072798
4932.000000	2.075478
4930.000000	2.078531
4928.000000	2.080975
4926.000000	2.083571
4924.000000	2.087335
4922.000000	2.089812
4920.000000	2.090712
4918.000000	2.092857
4916.000000	2.096533
4914.000000	2.099492
4912.000000	2.101992
4910.000000	2.105340
4908.000000	2.108706
4906.000000	2.112310
4904.000000	2.115731
4902.000000	2.118484
4900.000000	2.120752
4898.000000	2.122637
4896.000000	2.124673
4894.000000	2.128044
4892.000000	2.132373
4890.000000	2.135710
4888.000000	2.137796
4886.000000	2.140364
4884.000000	2.144088
4882.000000	2.147196
4880.000000	2.149236
4878.000000	2.150865
4876.000000	2.153210
4874.000000	2.156359
4872.000000	2.159937
4870.000000	2.162949
4868.000000	2.165338
4866.000000	2.167645
4864.000000	2.170530
4862.000000	2.173703
4860.000000	2.176451
4858.000000	2.178547
4856.000000	2.180933
4854.000000	2.183533
4852.000000	2.186332
4850.000000	2.189630
4848.000000	2.192916
4846.000000	2.195833
4844.000000	2.198571
4842.000000	2.201453
4840.000000	2.204220
4838.000000	2.207484
4836.000000	2.210665
4834.000000	2.213018
4832.000000	2.214660
4830.000000	2.216846
4828.000000	2.219858
4826.000000	2.223601
4824.000000	2.227110
4822.000000	2.230141
4820.000000	2.232959
4818.000000	2.235541
4816.000000	2.237607
4814.000000	2.240199
4812.000000	2.244039
4810.000000	2.247332
4808.000000	2.250288
4806.000000	2.253980
4804.000000	2.257495
4802.000000	2.259303
4800.000000	2.261319
4798.000000	2.263943
4796.000000	2.266265
4794.000000	2.269205
4792.000000	2.273338
4790.000000	2.276505
4788.000000	2.278582
4786.000000	2.281175
4784.000000	2.284221
4782.000000	2.287048
4780.000000	2.289592
4778.000000	2.291935
4776.000000	2.294905
4774.000000	2.298733
4772.000000	2.302310
4770.000000	2.304786
4768.000000	2.307258
4766.000000	2.310672
4764.000000	2.313885
4762.000000	2.315963
4760.000000	2.318584
4758.000000	2.322177
4756.000000	2.324745
4754.000000	2.326626
4752.000000	2.328566
4750.000000	2.330819
4748.000000	2.334367
4746.000000	2.338386
4744.000000	2.340685
4742.000000	2.343087
4740.000000	2.347054
4738.000000	2.350421
4736.000000	2.352646
4734.000000	2.355127
4732.000000	2.358224
4730.000000	2.361456
4728.000000	2.364015
4726.000000	2.365737
4724.000000	2.368275
4722.000000	2.372585
4720.000000	2.375869
4718.000000	2.377617
4716.000000	2.380375
4714.000000	2.384834
4712.000000	2.388260
4710.000000	2.389856
4708.000000	2.392016
4706.000000	2.395452
4704.000000	2.399100
4702.000000	2.402508
4700.000000	2.405899
4698.000000	2.408301
4696.000000	2.410018
4694.000000	2.413133
4692.000000	2.417373
4690.000000	2.420851
4688.000000	2.423338
4686.000000	2.426334
4684.000000	2.429665
4682.000000	2.431922
4680.000000	2.433880
4678.000000	2.437658
4676.000000	2.441897
4674.000000	2.445086
4672.000000	2.447939
4670.000000	2.450880
4668.000000	2.452991
4666.000000	2.455685
4664.000000	2.459520
4662.000000	2.462938
4660.000000	2.465547
4658.000000	2.467402
4656.000000	2.469623
4654.000000	2.472365
4652.000000	2.475761
4650.000000	2.479360
4648.000000	2.482186
4646.000000	2.484415
4644.000000	2.487281
4642.000000	2.490268
4640.000000	2.492207
4638.000000	2.494267
4636.000000	2.496862
4634.000000	2.500204
4632.000000	2.504317
4630.000000	2.508324
4628.000000	2.511617
4626.000000	2.514578
4624.000000	2.517188
4622.000000	2.519821
4620.000000	2.522786
4618.000000	2.526869
4616.000000	2.530416
4614.000000	2.532350
4612.000000	2.533925
4610.000000	2.536927
4608.000000	2.540387
4606.000000	2.543972
4604.000000	2.547674
4602.000000	2.551408
4600.000000	2.554506
4598.000000	2.556813
4596.000000	2.559669
4594.000000	2.564102
4592.000000	2.568632
4590.000000	2.571857
4588.000000	2.574618
4586.000000	2.577249
4584.000000	2.579152
4582.000000	2.580946
4580.000000	2.583500
4578.000000	2.586170
4576.000000	2.589420
4574.000000	2.593392
4572.000000	2.597463
4570.000000	2.601086
4568.000000	2.604146
4566.000000	2.607034
4564.000000	2.610414
4562.000000	2.612995
4560.000000	2.615098
4558.000000	2.618000
4556.000000	2.621515
4554.000000	2.624064
4552.000000	2.626418
4550.000000	2.630101
4548.000000	2.634452
4546.000000	2.637754
4544.000000	2.640218
4542.000000	2.642450
4540.000000	2.644921
4538.000000	2.647929
4536.000000	2.650976
4534.000000	2.654481
4532.000000	2.657754
4530.000000	2.660860
4528.000000	2.664635
4526.000000	2.668148
4524.000000	2.670823
4522.000000	2.673224
4520.000000	2.675484
4518.000000	2.678901
4516.000000	2.683144
4514.000000	2.685847
4512.000000	2.688314
4510.000000	2.692002
4508.000000	2.696049
4506.000000	2.699791
4504.000000	2.703649
4502.000000	2.706281
4500.000000	2.707994
4498.000000	2.710567
4496.000000	2.713734
4494.000000	2.715927
4492.000000	2.718551
4490.000000	2.722718
4488.000000	2.727299
4486.000000	2.730493
4484.000000	2.732487
4482.000000	2.734410
4480.000000	2.736935
4478.000000	2.740797
4476.000000	2.745732
4474.000000	2.748636
4472.000000	2.750291
4470.000000	2.753023
4468.000000	2.756021
4466.000000	2.758111
4464.000000	2.760506
4462.000000	2.764439
4460.000000	2.769642
4458.000000	2.773638
4456.000000	2.775981
4454.000000	2.778096
4452.000000	2.780167
4450.000000	2.782787
4448.000000	2.785973
4446.000000	2.789280
4444.000000	2.793237
4442.000000	2.796876
4440.000000	2.799348
4438.000000	2.801788
4436.000000	2.804262
4434.000000	2.806721
4432.000000	2.810197
4430.000000	2.814062
4428.000000	2.817226
4426.000000	2.820017
4424.000000	2.823461
4422.000000	2.827182
4420.000000	2.829426
4418.000000	2.830854
4416.000000	2.834186
4414.000000	2.838657
4412.000000	2.842071
4410.000000	2.845010
4408.000000	2.847963
4406.000000	2.850114
4404.000000	2.852816
4402.000000	2.856980
4400.000000	2.860643
4398.000000	2.863398
4396.000000	2.866826
4394.000000	2.869591
4392.000000	2.871299
4390.000000	2.874296
4388.000000	2.878841
4386.000000	2.883274
4384.000000	2.886547
4382.000000	2.888447
4380.000000	2.889953
4378.000000	2.892129
4376.000000	2.895460
4374.000000	2.899407
4372.000000	2.902529
4370.000000	2.904949
4368.000000	2.906908
4366.000000	2.908668
4364.000000	2.911309
4362.000000	2.914288
4360.000000	2.917214
4358.000000	2.921286
4356.000000	2.925130
4354.000000	2.927570
4352.000000	2.930943
4350.000000	2.935524
4348.000000	2.938857
4346.000000	2.940747
4344.000000	2.942944
4342.000000	2.946482
4340.000000	2.950326
4338.000000	2.953357
4336.000000	2.956251
4334.000000	2.959236
4332.000000	2.962405
4330.000000	2.965818
4328.000000	2.968373
4326.000000	2.971309
4324.000000	2.976258
4322.000000	2.980539
4320.000000	2.983203
4318.000000	2.985344
4316.000000	2.988254
4314.000000	2.992099
4312.000000	2.995121
4310.000000	2.997204
4308.000000	3.000625
4306.000000	3.004342
4304.000000	3.007219
4302.000000	3.010199
4300.000000	3.014326
4298.000000	3.017786
4296.000000	3.019783
4294.000000	3.022206
4292.000000	3.025354
4290.000000	3.028163
4288.000000	3.031652
4286.000000	3.034940
4284.000000	3.037564
4282.000000	3.041129
4280.000000	3.045404
4278.000000	3.048079
4276.000000	3.049414
4274.000000	3.051932
4272.000000	3.055986
4270.000000	3.059642
4268.000000	3.063105
4266.000000	3.066726
4264.000000	3.069090
4262.000000	3.070714
4260.000000	3.073141
4258.000000	3.076386
4256.000000	3.079659
4254.000000	3.083070
4252.000000	3.086352
4250.000000	3.089683
4248.000000	3.093470
4246.000000	3.096797
4244.000000	3.099535
4242.000000	3.102621
4240.000000	3.105897
4238.000000	3.109440
4236.000000	3.113752
4234.000000	3.117922
4232.000000	3.120769
4230.000000	3.122569
4228.000000	3.124403
4226.000000	3.126864
4224.000000	3.131037
4222.000000	3.135415
4220.000000	3.138138
4218.000000	3.140957
4216.000000	3.144416
4214.000000	3.147244
