PE IR       SUBTECH     SPECTRUM    ASCII       PEDS        4.00        
   -1
TE110A_035_80K_AFTER_105K_BG.ASC
20/05/14
12:53:27.00
20/05/14
12:53:27.00
Administrator
TE110A.Thursday, May 14 2020, 004.
1000.000000
#HDR
-1
-1
#GR
cm-1
EGY
1.0
0.0
6000.000000
-2.000000
2501
8
105.438951
11.022978
#DATA
6000.000000	16.655485
5998.000000	16.687773
5996.000000	16.720610
5994.000000	16.753666
5992.000000	16.786491
5990.000000	16.819965
5988.000000	16.852641
5986.000000	16.885012
5984.000000	16.918400
5982.000000	16.952112
5980.000000	16.985316
5978.000000	17.017605
5976.000000	17.050894
5974.000000	17.085941
5972.000000	17.120286
5970.000000	17.154074
5968.000000	17.187788
5966.000000	17.221880
5964.000000	17.255846
5962.000000	17.289343
5960.000000	17.323745
5958.000000	17.358927
5956.000000	17.393762
5954.000000	17.427720
5952.000000	17.461201
5950.000000	17.495172
5948.000000	17.529454
5946.000000	17.563743
5944.000000	17.596847
5942.000000	17.630683
5940.000000	17.665125
5938.000000	17.700002
5936.000000	17.733805
5934.000000	17.766548
5932.000000	17.799296
5930.000000	17.833187
5928.000000	17.867872
5926.000000	17.903249
5924.000000	17.938685
5922.000000	17.974161
5920.000000	18.009792
5918.000000	18.045829
5916.000000	18.081493
5914.000000	18.117326
5912.000000	18.153806
5910.000000	18.191081
5908.000000	18.227957
5906.000000	18.264441
5904.000000	18.300268
5902.000000	18.336333
5900.000000	18.372418
5898.000000	18.408717
5896.000000	18.444848
5894.000000	18.480823
5892.000000	18.516992
5890.000000	18.553469
5888.000000	18.590434
5886.000000	18.626569
5884.000000	18.661934
5882.000000	18.696916
5880.000000	18.732370
5878.000000	18.768829
5876.000000	18.805162
5874.000000	18.841926
5872.000000	18.878370
5870.000000	18.915284
5868.000000	18.951723
5866.000000	18.989370
5864.000000	19.027358
5862.000000	19.065372
5860.000000	19.102293
5858.000000	19.139511
5856.000000	19.177646
5854.000000	19.215267
5852.000000	19.253904
5850.000000	19.292509
5848.000000	19.331921
5846.000000	19.372425
5844.000000	19.412172
5842.000000	19.452492
5840.000000	19.493198
5838.000000	19.534853
5836.000000	19.577066
5834.000000	19.618345
5832.000000	19.659371
5830.000000	19.701154
5828.000000	19.742157
5826.000000	19.783162
5824.000000	19.823968
5822.000000	19.865809
5820.000000	19.906988
5818.000000	19.946803
5816.000000	19.985935
5814.000000	20.026005
5812.000000	20.067114
5810.000000	20.108861
5808.000000	20.149593
5806.000000	20.190359
5804.000000	20.230989
5802.000000	20.271907
5800.000000	20.313400
5798.000000	20.353726
5796.000000	20.393958
5794.000000	20.434161
5792.000000	20.475168
5790.000000	20.517092
5788.000000	20.558644
5786.000000	20.600258
5784.000000	20.641713
5782.000000	20.683255
5780.000000	20.723794
5778.000000	20.764597
5776.000000	20.806258
5774.000000	20.848906
5772.000000	20.892220
5770.000000	20.934545
5768.000000	20.976318
5766.000000	21.017638
5764.000000	21.059047
5762.000000	21.101215
5760.000000	21.142818
5758.000000	21.184812
5756.000000	21.226793
5754.000000	21.269325
5752.000000	21.311285
5750.000000	21.352417
5748.000000	21.393921
5746.000000	21.435604
5744.000000	21.477108
5742.000000	21.517647
5740.000000	21.557027
5738.000000	21.596340
5736.000000	21.636356
5734.000000	21.677564
5732.000000	21.718425
5730.000000	21.758836
5728.000000	21.799220
5726.000000	21.840244
5724.000000	21.881843
5722.000000	21.923545
5720.000000	21.965201
5718.000000	22.007661
5716.000000	22.050779
5714.000000	22.094199
5712.000000	22.137877
5710.000000	22.181304
5708.000000	22.225722
5706.000000	22.270489
5704.000000	22.315073
5702.000000	22.358680
5700.000000	22.401654
5698.000000	22.446349
5696.000000	22.491827
5694.000000	22.537908
5692.000000	22.582870
5690.000000	22.628635
5688.000000	22.674706
5686.000000	22.720050
5684.000000	22.765331
5682.000000	22.811126
5680.000000	22.856577
5678.000000	22.901304
5676.000000	22.945348
5674.000000	22.990196
5672.000000	23.035343
5670.000000	23.080673
5668.000000	23.125622
5666.000000	23.170602
5664.000000	23.216120
5662.000000	23.262749
5660.000000	23.309370
5658.000000	23.355081
5656.000000	23.399978
5654.000000	23.445959
5652.000000	23.491646
5650.000000	23.537173
5648.000000	23.582111
5646.000000	23.627615
5644.000000	23.672598
5642.000000	23.716924
5640.000000	23.761468
5638.000000	23.806988
5636.000000	23.852466
5634.000000	23.897476
5632.000000	23.942394
5630.000000	23.988438
5628.000000	24.034345
5626.000000	24.078970
5624.000000	24.123288
5622.000000	24.168839
5620.000000	24.215071
5618.000000	24.260922
5616.000000	24.306090
5614.000000	24.352400
5612.000000	24.398013
5610.000000	24.443316
5608.000000	24.487672
5606.000000	24.531546
5604.000000	24.576741
5602.000000	24.623403
5600.000000	24.670639
5598.000000	24.716898
5596.000000	24.762595
5594.000000	24.809974
5592.000000	24.857433
5590.000000	24.904434
5588.000000	24.951492
5586.000000	24.998671
5584.000000	25.045800
5582.000000	25.092021
5580.000000	25.137785
5578.000000	25.184390
5576.000000	25.231274
5574.000000	25.279592
5572.000000	25.328195
5570.000000	25.376398
5568.000000	25.423004
5566.000000	25.469502
5564.000000	25.516740
5562.000000	25.565092
5560.000000	25.612867
5558.000000	25.660372
5556.000000	25.707066
5554.000000	25.753698
5552.000000	25.800768
5550.000000	25.848311
5548.000000	25.896890
5546.000000	25.945505
5544.000000	25.993249
5542.000000	26.039395
5540.000000	26.084788
5538.000000	26.131750
5536.000000	26.179690
5534.000000	26.228455
5532.000000	26.276294
5530.000000	26.323875
5528.000000	26.371120
5526.000000	26.417416
5524.000000	26.463341
5522.000000	26.510059
5520.000000	26.557517
5518.000000	26.606056
5516.000000	26.655292
5514.000000	26.704382
5512.000000	26.749838
5510.000000	26.792519
5508.000000	26.837897
5506.000000	26.887603
5504.000000	26.938759
5502.000000	26.987763
5500.000000	27.035341
5498.000000	27.080111
5496.000000	27.119331
5494.000000	27.158219
5492.000000	27.201473
5490.000000	27.253320
5488.000000	27.310747
5486.000000	27.369655
5484.000000	27.425407
5482.000000	27.475763
5480.000000	27.517333
5478.000000	27.551923
5476.000000	27.591669
5474.000000	27.644360
5472.000000	27.704256
5470.000000	27.757201
5468.000000	27.804489
5466.000000	27.850569
5464.000000	27.894400
5462.000000	27.939108
5460.000000	27.989971
5458.000000	28.047405
5456.000000	28.106255
5454.000000	28.157706
5452.000000	28.199723
5450.000000	28.233958
5448.000000	28.269679
5446.000000	28.313000
5444.000000	28.360390
5442.000000	28.415792
5440.000000	28.472810
5438.000000	28.522689
5436.000000	28.567573
5434.000000	28.613114
5432.000000	28.657240
5430.000000	28.701732
5428.000000	28.757283
5426.000000	28.826495
5424.000000	28.893031
5422.000000	28.949257
5420.000000	28.997559
5418.000000	29.029602
5416.000000	29.049265
5414.000000	29.075438
5412.000000	29.123796
5410.000000	29.192724
5408.000000	29.264443
5406.000000	29.329061
5404.000000	29.385414
5402.000000	29.436945
5400.000000	29.481296
5398.000000	29.514315
5396.000000	29.545211
5394.000000	29.592972
5392.000000	29.656721
5390.000000	29.718320
5388.000000	29.765196
5386.000000	29.811477
5384.000000	29.869359
5382.000000	29.927386
5380.000000	29.966790
5378.000000	29.999881
5376.000000	30.048089
5374.000000	30.116540
5372.000000	30.185976
5370.000000	30.246251
5368.000000	30.295847
5366.000000	30.340954
5364.000000	30.388205
5362.000000	30.441708
5360.000000	30.495821
5358.000000	30.537300
5356.000000	30.567155
5354.000000	30.603732
5352.000000	30.655988
5350.000000	30.712572
5348.000000	30.751057
5346.000000	30.785617
5344.000000	30.833860
5342.000000	30.886707
5340.000000	30.934153
5338.000000	30.986735
5336.000000	31.054939
5334.000000	31.123873
5332.000000	31.177763
5330.000000	31.221467
5328.000000	31.270624
5326.000000	31.330282
5324.000000	31.395852
5322.000000	31.455268
5320.000000	31.506471
5318.000000	31.555006
5316.000000	31.604097
5314.000000	31.655794
5312.000000	31.703741
5310.000000	31.745130
5308.000000	31.789389
5306.000000	31.843898
5304.000000	31.902917
5302.000000	31.957446
5300.000000	32.009756
5298.000000	32.063754
5296.000000	32.115865
5294.000000	32.158446
5292.000000	32.197594
5290.000000	32.245191
5288.000000	32.301528
5286.000000	32.359009
5284.000000	32.412418
5282.000000	32.467322
5280.000000	32.524289
5278.000000	32.581702
5276.000000	32.638274
5274.000000	32.690444
5272.000000	32.736514
5270.000000	32.779070
5268.000000	32.815100
5266.000000	32.848276
5264.000000	32.891907
5262.000000	32.956674
5260.000000	33.028110
5258.000000	33.083087
5256.000000	33.127046
5254.000000	33.176265
5252.000000	33.226345
5250.000000	33.268369
5248.000000	33.309644
5246.000000	33.364635
5244.000000	33.433144
5242.000000	33.502289
5240.000000	33.565613
5238.000000	33.619731
5236.000000	33.667446
5234.000000	33.712772
5232.000000	33.761158
5230.000000	33.809012
5228.000000	33.849277
5226.000000	33.892205
5224.000000	33.949988
5222.000000	34.016636
5220.000000	34.075843
5218.000000	34.130499
5216.000000	34.187458
5214.000000	34.242122
5212.000000	34.283918
5210.000000	34.311417
5208.000000	34.343927
5206.000000	34.402021
5204.000000	34.479571
5202.000000	34.551895
5200.000000	34.605826
5198.000000	34.654736
5196.000000	34.709593
5194.000000	34.768746
5192.000000	34.823555
5190.000000	34.873465
5188.000000	34.922008
5186.000000	34.973737
5184.000000	35.029663
5182.000000	35.089481
5180.000000	35.148417
5178.000000	35.204904
5176.000000	35.259848
5174.000000	35.312886
5172.000000	35.365803
5170.000000	35.421252
5168.000000	35.476452
5166.000000	35.528326
5164.000000	35.580154
5162.000000	35.635972
5160.000000	35.692498
5158.000000	35.746234
5156.000000	35.799958
5154.000000	35.856395
5152.000000	35.913950
5150.000000	35.970298
5148.000000	36.025017
5146.000000	36.078352
5144.000000	36.130497
5142.000000	36.183575
5140.000000	36.238617
5138.000000	36.294090
5136.000000	36.347277
5134.000000	36.400660
5132.000000	36.455281
5130.000000	36.510584
5128.000000	36.565723
5126.000000	36.620570
5124.000000	36.673918
5122.000000	36.726085
5120.000000	36.778663
5118.000000	36.833412
5116.000000	36.888718
5114.000000	36.944340
5112.000000	36.999687
5110.000000	37.055534
5108.000000	37.110616
5106.000000	37.164609
5104.000000	37.218912
5102.000000	37.275245
5100.000000	37.331556
5098.000000	37.386738
5096.000000	37.441610
5094.000000	37.497698
5092.000000	37.553770
5090.000000	37.610183
5088.000000	37.667263
5086.000000	37.725036
5084.000000	37.781945
5082.000000	37.839197
5080.000000	37.896358
5078.000000	37.953695
5076.000000	38.009295
5074.000000	38.064392
5072.000000	38.119752
5070.000000	38.176425
5068.000000	38.233831
5066.000000	38.291575
5064.000000	38.348396
5062.000000	38.404525
5060.000000	38.460215
5058.000000	38.516015
5056.000000	38.570689
5054.000000	38.625809
5052.000000	38.682475
5050.000000	38.739935
5048.000000	38.796905
5046.000000	38.853632
5044.000000	38.909329
5042.000000	38.964945
5040.000000	39.020778
5038.000000	39.077444
5036.000000	39.133513
5034.000000	39.189309
5032.000000	39.245051
5030.000000	39.301082
5028.000000	39.356840
5026.000000	39.412318
5024.000000	39.467958
5022.000000	39.524454
5020.000000	39.580638
5018.000000	39.637264
5016.000000	39.693679
5014.000000	39.749288
5012.000000	39.804621
5010.000000	39.861906
5008.000000	39.920459
5006.000000	39.978262
5004.000000	40.035114
5002.000000	40.093135
5000.000000	40.150872
4998.000000	40.207548
4996.000000	40.263936
4994.000000	40.322521
4992.000000	40.381214
4990.000000	40.439649
4988.000000	40.498391
4986.000000	40.557718
4984.000000	40.616325
4982.000000	40.674723
4980.000000	40.732667
4978.000000	40.789693
4976.000000	40.846556
4974.000000	40.904542
4972.000000	40.962599
4970.000000	41.020296
4968.000000	41.078000
4966.000000	41.136240
4964.000000	41.194231
4962.000000	41.251694
4960.000000	41.308133
4958.000000	41.365627
4956.000000	41.423647
4954.000000	41.481327
4952.000000	41.537575
4950.000000	41.593377
4948.000000	41.648934
4946.000000	41.705907
4944.000000	41.763908
4942.000000	41.821870
4940.000000	41.878175
4938.000000	41.933814
4936.000000	41.989923
4934.000000	42.047478
4932.000000	42.105215
4930.000000	42.162684
4928.000000	42.219413
4926.000000	42.276050
4924.000000	42.332308
4922.000000	42.389047
4920.000000	42.446156
4918.000000	42.504147
4916.000000	42.561733
4914.000000	42.618571
4912.000000	42.675078
4910.000000	42.733419
4908.000000	42.793158
4906.000000	42.852596
4904.000000	42.910882
4902.000000	42.970451
4900.000000	43.030146
4898.000000	43.088265
4896.000000	43.145474
4894.000000	43.204948
4892.000000	43.265594
4890.000000	43.326419
4888.000000	43.385833
4886.000000	43.445401
4884.000000	43.504401
4882.000000	43.563386
4880.000000	43.621760
4878.000000	43.680644
4876.000000	43.739506
4874.000000	43.798389
4872.000000	43.857397
4870.000000	43.917471
4868.000000	43.976736
4866.000000	44.034984
4864.000000	44.092467
4862.000000	44.149807
4860.000000	44.206817
4858.000000	44.265276
4856.000000	44.324620
4854.000000	44.382969
4852.000000	44.440129
4850.000000	44.497867
4848.000000	44.555691
4846.000000	44.614464
4844.000000	44.672309
4842.000000	44.729430
4840.000000	44.786075
4838.000000	44.844531
4836.000000	44.903162
4834.000000	44.961829
4832.000000	45.019540
4830.000000	45.076642
4828.000000	45.133647
4826.000000	45.191727
4824.000000	45.250035
4822.000000	45.308604
4820.000000	45.366966
4818.000000	45.425507
4816.000000	45.484320
4814.000000	45.543634
4812.000000	45.602035
4810.000000	45.660285
4808.000000	45.719061
4806.000000	45.778486
4804.000000	45.838634
4802.000000	45.900544
4800.000000	45.961522
4798.000000	46.021099
4796.000000	46.080626
4794.000000	46.141384
4792.000000	46.202314
4790.000000	46.263488
4788.000000	46.323375
4786.000000	46.383111
4784.000000	46.443607
4782.000000	46.504889
4780.000000	46.565051
4778.000000	46.624737
4776.000000	46.683569
4774.000000	46.743635
4772.000000	46.803795
4770.000000	46.863589
4768.000000	46.923167
4766.000000	46.983544
4764.000000	47.042661
4762.000000	47.100441
4760.000000	47.158594
4758.000000	47.217780
4756.000000	47.276989
4754.000000	47.336203
4752.000000	47.393865
4750.000000	47.451020
4748.000000	47.508668
4746.000000	47.568138
4744.000000	47.625943
4742.000000	47.682967
4740.000000	47.740455
4738.000000	47.799380
4736.000000	47.857208
4734.000000	47.914732
4732.000000	47.972399
4730.000000	48.031088
4728.000000	48.090302
4726.000000	48.150687
4724.000000	48.210669
4722.000000	48.270520
4720.000000	48.330098
4718.000000	48.390872
4716.000000	48.452449
4714.000000	48.514468
4712.000000	48.575932
4710.000000	48.637921
4708.000000	48.699876
4706.000000	48.762998
4704.000000	48.827014
4702.000000	48.890452
4700.000000	48.952084
4698.000000	49.015329
4696.000000	49.079428
4694.000000	49.142223
4692.000000	49.202797
4690.000000	49.263148
4688.000000	49.323208
4686.000000	49.384629
4684.000000	49.446731
4682.000000	49.508699
4680.000000	49.570005
4678.000000	49.632137
4676.000000	49.694157
4674.000000	49.755955
4672.000000	49.817204
4670.000000	49.878172
4668.000000	49.938182
4666.000000	49.999474
4664.000000	50.061321
4662.000000	50.122280
4660.000000	50.182152
4658.000000	50.244293
4656.000000	50.306288
4654.000000	50.366834
4652.000000	50.426363
4650.000000	50.487152
4648.000000	50.548390
4646.000000	50.610526
4644.000000	50.672378
4642.000000	50.733420
4640.000000	50.793622
4638.000000	50.854595
4636.000000	50.915717
4634.000000	50.976921
4632.000000	51.038176
4630.000000	51.099881
4628.000000	51.161100
4626.000000	51.221968
4624.000000	51.281864
4622.000000	51.343120
4620.000000	51.405887
4618.000000	51.469421
4616.000000	51.532692
4614.000000	51.596332
4612.000000	51.659592
4610.000000	51.723829
4608.000000	51.787917
4606.000000	51.852369
4604.000000	51.917886
4602.000000	51.984211
4600.000000	52.049405
4598.000000	52.115206
4596.000000	52.180481
4594.000000	52.244843
4592.000000	52.308821
4590.000000	52.373969
4588.000000	52.438474
4586.000000	52.502561
4584.000000	52.565882
4582.000000	52.629356
4580.000000	52.693571
4578.000000	52.759706
4576.000000	52.824407
4574.000000	52.887374
4572.000000	52.950778
4570.000000	53.015668
4568.000000	53.079053
4566.000000	53.142236
4564.000000	53.206192
4562.000000	53.270618
4560.000000	53.333429
4558.000000	53.395969
4556.000000	53.458218
4554.000000	53.520876
4552.000000	53.583661
4550.000000	53.646721
4548.000000	53.708362
4546.000000	53.770176
4544.000000	53.832471
4542.000000	53.895203
4540.000000	53.957900
4538.000000	54.021900
4536.000000	54.085209
4534.000000	54.146779
4532.000000	54.207541
4530.000000	54.270676
4528.000000	54.335199
4526.000000	54.400163
4524.000000	54.464433
4522.000000	54.529259
4520.000000	54.593678
4518.000000	54.657425
4516.000000	54.720168
4514.000000	54.784169
4512.000000	54.849748
4510.000000	54.915917
4508.000000	54.980704
4506.000000	55.045990
4504.000000	55.111985
4502.000000	55.178065
4500.000000	55.242905
4498.000000	55.308082
4496.000000	55.373534
4494.000000	55.439886
4492.000000	55.505901
4490.000000	55.571537
4488.000000	55.636208
4486.000000	55.701731
4484.000000	55.766803
4482.000000	55.831151
4480.000000	55.894728
4478.000000	55.958812
4476.000000	56.022589
4474.000000	56.086085
4472.000000	56.148439
4470.000000	56.211730
4468.000000	56.274953
4466.000000	56.338235
4464.000000	56.400684
4462.000000	56.463166
4460.000000	56.524557
4458.000000	56.586288
4456.000000	56.647923
4454.000000	56.710673
4452.000000	56.772960
4450.000000	56.834803
4448.000000	56.896738
4446.000000	56.959715
4444.000000	57.021772
4442.000000	57.083898
4440.000000	57.146805
4438.000000	57.210748
4436.000000	57.274226
4434.000000	57.337371
4432.000000	57.399688
4430.000000	57.462508
4428.000000	57.525140
4426.000000	57.588548
4424.000000	57.652097
4422.000000	57.716259
4420.000000	57.779928
4418.000000	57.844067
4416.000000	57.908109
4414.000000	57.972636
4412.000000	58.036704
4410.000000	58.101404
4408.000000	58.166119
4406.000000	58.231222
4404.000000	58.295413
4402.000000	58.358940
4400.000000	58.422088
4398.000000	58.486245
4396.000000	58.550242
4394.000000	58.614617
4392.000000	58.678525
4390.000000	58.741955
4388.000000	58.804306
4386.000000	58.866691
4384.000000	58.927964
4382.000000	58.988831
4380.000000	59.048724
4378.000000	59.108643
4376.000000	59.168879
4374.000000	59.230423
4372.000000	59.290256
4370.000000	59.349341
4368.000000	59.408797
4366.000000	59.469371
4364.000000	59.529792
4362.000000	59.591654
4360.000000	59.653409
4358.000000	59.714871
4356.000000	59.776369
4354.000000	59.839642
4352.000000	59.903658
4350.000000	59.967839
4348.000000	60.030489
4346.000000	60.093616
4344.000000	60.157189
4342.000000	60.220392
4340.000000	60.282466
4338.000000	60.344858
4336.000000	60.406846
4334.000000	60.470284
4332.000000	60.535424
4330.000000	60.602007
4328.000000	60.667244
4326.000000	60.731754
4324.000000	60.796564
4322.000000	60.863355
4320.000000	60.930315
4318.000000	60.998272
4316.000000	61.066414
4314.000000	61.133752
4312.000000	61.199691
4310.000000	61.267606
4308.000000	61.336375
4306.000000	61.404906
4304.000000	61.471178
4302.000000	61.535772
4300.000000	61.599591
4298.000000	61.664777
4296.000000	61.730067
4294.000000	61.795794
4292.000000	61.860262
