Created as New Dataset,Sample 029 By Administrator Date Monday, February 10 2020
cm-1,A
6000.00,1.2108
5999.00,1.2109
5998.00,1.2109
5997.00,1.2109
5996.00,1.2110
5995.00,1.2111
5994.00,1.2111
5993.00,1.2111
5992.00,1.2111
5991.00,1.2111
5990.00,1.2110
5989.00,1.2110
5988.00,1.2110
5987.00,1.2111
5986.00,1.2111
5985.00,1.2110
5984.00,1.2108
5983.00,1.2105
5982.00,1.2103
5981.00,1.2100
5980.00,1.2099
5979.00,1.2100
5978.00,1.2100
5977.00,1.2101
5976.00,1.2101
5975.00,1.2101
5974.00,1.2101
5973.00,1.2100
5972.00,1.2100
5971.00,1.2100
5970.00,1.2101
5969.00,1.2101
5968.00,1.2102
5967.00,1.2102
5966.00,1.2101
5965.00,1.2100
5964.00,1.2100
5963.00,1.2101
5962.00,1.2102
5961.00,1.2104
5960.00,1.2105
5959.00,1.2106
5958.00,1.2105
5957.00,1.2105
5956.00,1.2104
5955.00,1.2103
5954.00,1.2102
5953.00,1.2100
5952.00,1.2099
5951.00,1.2098
5950.00,1.2096
5949.00,1.2095
5948.00,1.2095
5947.00,1.2095
5946.00,1.2095
5945.00,1.2094
5944.00,1.2092
5943.00,1.2091
5942.00,1.2091
5941.00,1.2091
5940.00,1.2092
5939.00,1.2092
5938.00,1.2092
5937.00,1.2092
5936.00,1.2090
5935.00,1.2089
5934.00,1.2087
5933.00,1.2087
5932.00,1.2087
5931.00,1.2089
5930.00,1.2090
5929.00,1.2091
5928.00,1.2091
5927.00,1.2090
5926.00,1.2089
5925.00,1.2089
5924.00,1.2089
5923.00,1.2090
5922.00,1.2091
5921.00,1.2092
5920.00,1.2094
5919.00,1.2095
5918.00,1.2095
5917.00,1.2094
5916.00,1.2092
5915.00,1.2091
5914.00,1.2090
5913.00,1.2089
5912.00,1.2087
5911.00,1.2086
5910.00,1.2085
5909.00,1.2085
5908.00,1.2085
5907.00,1.2086
5906.00,1.2086
5905.00,1.2087
5904.00,1.2087
5903.00,1.2086
5902.00,1.2084
5901.00,1.2082
5900.00,1.2082
5899.00,1.2082
5898.00,1.2084
5897.00,1.2085
5896.00,1.2087
5895.00,1.2089
5894.00,1.2089
5893.00,1.2088
5892.00,1.2087
5891.00,1.2086
5890.00,1.2085
5889.00,1.2085
5888.00,1.2084
5887.00,1.2084
5886.00,1.2083
5885.00,1.2082
5884.00,1.2080
5883.00,1.2077
5882.00,1.2075
5881.00,1.2073
5880.00,1.2073
5879.00,1.2073
5878.00,1.2073
5877.00,1.2074
5876.00,1.2075
5875.00,1.2077
5874.00,1.2077
5873.00,1.2077
5872.00,1.2076
5871.00,1.2076
5870.00,1.2075
5869.00,1.2074
5868.00,1.2073
5867.00,1.2072
5866.00,1.2072
5865.00,1.2073
5864.00,1.2074
5863.00,1.2075
5862.00,1.2075
5861.00,1.2076
5860.00,1.2077
5859.00,1.2077
5858.00,1.2076
5857.00,1.2074
5856.00,1.2072
5855.00,1.2071
5854.00,1.2071
5853.00,1.2071
5852.00,1.2071
5851.00,1.2072
5850.00,1.2073
5849.00,1.2074
5848.00,1.2075
5847.00,1.2074
5846.00,1.2073
5845.00,1.2073
5844.00,1.2073
5843.00,1.2073
5842.00,1.2072
5841.00,1.2072
5840.00,1.2071
5839.00,1.2072
5838.00,1.2072
5837.00,1.2072
5836.00,1.2072
5835.00,1.2072
5834.00,1.2072
5833.00,1.2072
5832.00,1.2072
5831.00,1.2072
5830.00,1.2072
5829.00,1.2072
5828.00,1.2072
5827.00,1.2072
5826.00,1.2073
5825.00,1.2073
5824.00,1.2073
5823.00,1.2072
5822.00,1.2071
5821.00,1.2070
5820.00,1.2069
5819.00,1.2069
5818.00,1.2069
5817.00,1.2070
5816.00,1.2071
5815.00,1.2073
5814.00,1.2075
5813.00,1.2075
5812.00,1.2074
5811.00,1.2073
5810.00,1.2071
5809.00,1.2069
5808.00,1.2068
5807.00,1.2068
5806.00,1.2069
5805.00,1.2070
5804.00,1.2071
5803.00,1.2073
5802.00,1.2074
5801.00,1.2074
5800.00,1.2072
5799.00,1.2071
5798.00,1.2069
5797.00,1.2066
5796.00,1.2064
5795.00,1.2063
5794.00,1.2063
5793.00,1.2063
5792.00,1.2065
5791.00,1.2066
5790.00,1.2066
5789.00,1.2064
5788.00,1.2063
5787.00,1.2062
5786.00,1.2061
5785.00,1.2060
5784.00,1.2061
5783.00,1.2062
5782.00,1.2064
5781.00,1.2064
5780.00,1.2065
5779.00,1.2066
5778.00,1.2067
5777.00,1.2067
5776.00,1.2067
5775.00,1.2067
5774.00,1.2065
5773.00,1.2064
5772.00,1.2062
5771.00,1.2060
5770.00,1.2059
5769.00,1.2058
5768.00,1.2059
5767.00,1.2059
5766.00,1.2058
5765.00,1.2057
5764.00,1.2056
5763.00,1.2056
5762.00,1.2056
5761.00,1.2056
5760.00,1.2056
5759.00,1.2057
5758.00,1.2057
5757.00,1.2056
5756.00,1.2055
5755.00,1.2054
5754.00,1.2054
5753.00,1.2053
5752.00,1.2053
5751.00,1.2053
5750.00,1.2054
5749.00,1.2053
5748.00,1.2051
5747.00,1.2050
5746.00,1.2049
5745.00,1.2049
5744.00,1.2050
5743.00,1.2051
5742.00,1.2053
5741.00,1.2054
5740.00,1.2055
5739.00,1.2056
5738.00,1.2056
5737.00,1.2055
5736.00,1.2054
5735.00,1.2053
5734.00,1.2052
5733.00,1.2052
5732.00,1.2052
5731.00,1.2053
5730.00,1.2054
5729.00,1.2055
5728.00,1.2054
5727.00,1.2053
5726.00,1.2052
5725.00,1.2050
5724.00,1.2049
5723.00,1.2049
5722.00,1.2050
5721.00,1.2050
5720.00,1.2051
5719.00,1.2052
5718.00,1.2053
5717.00,1.2054
5716.00,1.2055
5715.00,1.2055
5714.00,1.2055
5713.00,1.2056
5712.00,1.2055
5711.00,1.2054
5710.00,1.2052
5709.00,1.2051
5708.00,1.2050
5707.00,1.2050
5706.00,1.2050
5705.00,1.2049
5704.00,1.2050
5703.00,1.2050
5702.00,1.2050
5701.00,1.2049
5700.00,1.2047
5699.00,1.2046
5698.00,1.2046
5697.00,1.2046
5696.00,1.2046
5695.00,1.2047
5694.00,1.2048
5693.00,1.2047
5692.00,1.2047
5691.00,1.2046
5690.00,1.2046
5689.00,1.2045
5688.00,1.2045
5687.00,1.2046
5686.00,1.2046
5685.00,1.2046
5684.00,1.2045
5683.00,1.2045
5682.00,1.2045
5681.00,1.2044
5680.00,1.2044
5679.00,1.2044
5678.00,1.2044
5677.00,1.2043
5676.00,1.2043
5675.00,1.2043
5674.00,1.2044
5673.00,1.2044
5672.00,1.2045
5671.00,1.2045
5670.00,1.2044
5669.00,1.2043
5668.00,1.2042
5667.00,1.2041
5666.00,1.2039
5665.00,1.2037
5664.00,1.2036
5663.00,1.2037
5662.00,1.2037
5661.00,1.2038
5660.00,1.2039
5659.00,1.2040
5658.00,1.2039
5657.00,1.2038
5656.00,1.2038
5655.00,1.2038
5654.00,1.2038
5653.00,1.2039
5652.00,1.2039
5651.00,1.2040
5650.00,1.2041
5649.00,1.2041
5648.00,1.2041
5647.00,1.2041
5646.00,1.2042
5645.00,1.2042
5644.00,1.2042
5643.00,1.2041
5642.00,1.2040
5641.00,1.2039
5640.00,1.2037
5639.00,1.2037
5638.00,1.2037
5637.00,1.2037
5636.00,1.2038
5635.00,1.2038
5634.00,1.2039
5633.00,1.2037
5632.00,1.2036
5631.00,1.2034
5630.00,1.2032
5629.00,1.2031
5628.00,1.2031
5627.00,1.2031
5626.00,1.2032
5625.00,1.2032
5624.00,1.2031
5623.00,1.2031
5622.00,1.2031
5621.00,1.2031
5620.00,1.2031
5619.00,1.2030
5618.00,1.2030
5617.00,1.2030
5616.00,1.2030
5615.00,1.2031
5614.00,1.2032
5613.00,1.2034
5612.00,1.2035
5611.00,1.2035
5610.00,1.2034
5609.00,1.2032
5608.00,1.2031
5607.00,1.2031
5606.00,1.2031
5605.00,1.2031
5604.00,1.2031
5603.00,1.2030
5602.00,1.2030
5601.00,1.2029
5600.00,1.2029
5599.00,1.2029
5598.00,1.2029
5597.00,1.2029
5596.00,1.2029
5595.00,1.2028
5594.00,1.2026
5593.00,1.2024
5592.00,1.2024
5591.00,1.2024
5590.00,1.2026
5589.00,1.2027
5588.00,1.2029
5587.00,1.2029
5586.00,1.2029
5585.00,1.2027
5584.00,1.2026
5583.00,1.2024
5582.00,1.2023
5581.00,1.2022
5580.00,1.2021
5579.00,1.2021
5578.00,1.2021
5577.00,1.2022
5576.00,1.2023
5575.00,1.2024
5574.00,1.2025
5573.00,1.2025
5572.00,1.2024
5571.00,1.2023
5570.00,1.2022
5569.00,1.2021
5568.00,1.2021
5567.00,1.2021
5566.00,1.2021
5565.00,1.2020
5564.00,1.2020
5563.00,1.2019
5562.00,1.2019
5561.00,1.2020
5560.00,1.2021
5559.00,1.2023
5558.00,1.2023
5557.00,1.2023
5556.00,1.2022
5555.00,1.2022
5554.00,1.2021
5553.00,1.2020
5552.00,1.2019
5551.00,1.2019
5550.00,1.2018
5549.00,1.2018
5548.00,1.2018
5547.00,1.2018
5546.00,1.2018
5545.00,1.2018
5544.00,1.2018
5543.00,1.2018
5542.00,1.2018
5541.00,1.2016
5540.00,1.2016
5539.00,1.2016
5538.00,1.2015
5537.00,1.2015
5536.00,1.2014
5535.00,1.2014
5534.00,1.2014
5533.00,1.2014
5532.00,1.2014
5531.00,1.2015
5530.00,1.2015
5529.00,1.2015
5528.00,1.2015
5527.00,1.2015
5526.00,1.2015
5525.00,1.2015
5524.00,1.2014
5523.00,1.2014
5522.00,1.2013
5521.00,1.2011
5520.00,1.2010
5519.00,1.2009
5518.00,1.2009
5517.00,1.2009
5516.00,1.2010
5515.00,1.2010
5514.00,1.2010
5513.00,1.2010
5512.00,1.2010
5511.00,1.2010
5510.00,1.2010
5509.00,1.2010
5508.00,1.2011
5507.00,1.2012
5506.00,1.2013
5505.00,1.2013
5504.00,1.2013
5503.00,1.2012
5502.00,1.2010
5501.00,1.2008
5500.00,1.2006
5499.00,1.2006
5498.00,1.2006
5497.00,1.2007
5496.00,1.2008
5495.00,1.2008
5494.00,1.2007
5493.00,1.2007
5492.00,1.2007
5491.00,1.2007
5490.00,1.2007
5489.00,1.2007
5488.00,1.2005
5487.00,1.2004
5486.00,1.2003
5485.00,1.2002
5484.00,1.2003
5483.00,1.2004
5482.00,1.2006
5481.00,1.2007
5480.00,1.2009
5479.00,1.2010
5478.00,1.2009
5477.00,1.2007
5476.00,1.2004
5475.00,1.2002
5474.00,1.2000
5473.00,1.2000
5472.00,1.2000
5471.00,1.2001
5470.00,1.2001
5469.00,1.2002
5468.00,1.2001
5467.00,1.2001
5466.00,1.1999
5465.00,1.1997
5464.00,1.1996
5463.00,1.1996
5462.00,1.1995
5461.00,1.1995
5460.00,1.1996
5459.00,1.1997
5458.00,1.1997
5457.00,1.1997
5456.00,1.1998
5455.00,1.1999
5454.00,1.1999
5453.00,1.2000
5452.00,1.1999
5451.00,1.1998
5450.00,1.1997
5449.00,1.1995
5448.00,1.1994
5447.00,1.1993
5446.00,1.1991
5445.00,1.1991
5444.00,1.1991
5443.00,1.1990
5442.00,1.1989
5441.00,1.1989
5440.00,1.1989
5439.00,1.1990
5438.00,1.1991
5437.00,1.1991
5436.00,1.1991
5435.00,1.1991
5434.00,1.1991
5433.00,1.1991
5432.00,1.1991
5431.00,1.1991
5430.00,1.1990
5429.00,1.1989
5428.00,1.1988
5427.00,1.1988
5426.00,1.1988
5425.00,1.1988
5424.00,1.1989
5423.00,1.1991
5422.00,1.1992
5421.00,1.1992
5420.00,1.1992
5419.00,1.1991
5418.00,1.1990
5417.00,1.1988
5416.00,1.1986
5415.00,1.1985
5414.00,1.1984
5413.00,1.1983
5412.00,1.1983
5411.00,1.1983
5410.00,1.1984
5409.00,1.1984
5408.00,1.1986
5407.00,1.1987
5406.00,1.1989
5405.00,1.1990
5404.00,1.1991
5403.00,1.1991
5402.00,1.1990
5401.00,1.1989
5400.00,1.1987
5399.00,1.1986
5398.00,1.1985
5397.00,1.1984
5396.00,1.1983
5395.00,1.1982
5394.00,1.1981
5393.00,1.1981
5392.00,1.1980
5391.00,1.1980
5390.00,1.1980
5389.00,1.1980
5388.00,1.1979
5387.00,1.1979
5386.00,1.1979
5385.00,1.1980
5384.00,1.1981
5383.00,1.1981
5382.00,1.1981
5381.00,1.1980
5380.00,1.1979
5379.00,1.1978
5378.00,1.1977
5377.00,1.1976
5376.00,1.1977
5375.00,1.1977
5374.00,1.1978
5373.00,1.1977
5372.00,1.1977
5371.00,1.1977
5370.00,1.1978
5369.00,1.1978
5368.00,1.1978
5367.00,1.1978
5366.00,1.1978
5365.00,1.1977
5364.00,1.1977
5363.00,1.1978
5362.00,1.1979
5361.00,1.1980
5360.00,1.1982
5359.00,1.1982
5358.00,1.1981
5357.00,1.1979
5356.00,1.1977
5355.00,1.1975
5354.00,1.1974
5353.00,1.1973
5352.00,1.1972
5351.00,1.1972
5350.00,1.1971
5349.00,1.1970
5348.00,1.1970
5347.00,1.1971
5346.00,1.1971
5345.00,1.1970
5344.00,1.1969
5343.00,1.1969
5342.00,1.1969
5341.00,1.1969
5340.00,1.1968
5339.00,1.1968
5338.00,1.1969
5337.00,1.1970
5336.00,1.1972
5335.00,1.1974
5334.00,1.1975
5333.00,1.1974
5332.00,1.1973
5331.00,1.1972
5330.00,1.1971
5329.00,1.1971
5328.00,1.1971
5327.00,1.1971
5326.00,1.1973
5325.00,1.1974
5324.00,1.1975
5323.00,1.1976
5322.00,1.1976
5321.00,1.1977
5320.00,1.1977
5319.00,1.1977
5318.00,1.1976
5317.00,1.1975
5316.00,1.1974
5315.00,1.1973
5314.00,1.1973
5313.00,1.1973
5312.00,1.1973
5311.00,1.1974
5310.00,1.1975
5309.00,1.1975
5308.00,1.1975
5307.00,1.1975
5306.00,1.1975
5305.00,1.1974
5304.00,1.1973
5303.00,1.1972
5302.00,1.1972
5301.00,1.1972
5300.00,1.1971
5299.00,1.1972
5298.00,1.1972
5297.00,1.1973
5296.00,1.1973
5295.00,1.1973
5294.00,1.1974
5293.00,1.1974
5292.00,1.1973
5291.00,1.1971
5290.00,1.1970
5289.00,1.1970
5288.00,1.1971
5287.00,1.1971
5286.00,1.1972
5285.00,1.1972
5284.00,1.1972
5283.00,1.1973
5282.00,1.1973
5281.00,1.1973
5280.00,1.1973
5279.00,1.1974
5278.00,1.1974
5277.00,1.1975
5276.00,1.1976
5275.00,1.1977
5274.00,1.1978
5273.00,1.1979
5272.00,1.1978
5271.00,1.1977
5270.00,1.1975
5269.00,1.1973
5268.00,1.1972
5267.00,1.1971
5266.00,1.1971
5265.00,1.1971
5264.00,1.1971
5263.00,1.1972
5262.00,1.1973
5261.00,1.1974
5260.00,1.1974
5259.00,1.1975
5258.00,1.1975
5257.00,1.1975
5256.00,1.1975
5255.00,1.1974
5254.00,1.1973
5253.00,1.1973
5252.00,1.1974
5251.00,1.1975
5250.00,1.1975
5249.00,1.1975
5248.00,1.1975
5247.00,1.1974
5246.00,1.1974
5245.00,1.1973
5244.00,1.1974
5243.00,1.1975
5242.00,1.1976
5241.00,1.1978
5240.00,1.1979
5239.00,1.1980
5238.00,1.1981
5237.00,1.1982
5236.00,1.1983
5235.00,1.1984
5234.00,1.1983
5233.00,1.1983
5232.00,1.1982
5231.00,1.1981
5230.00,1.1981
5229.00,1.1981
5228.00,1.1982
5227.00,1.1982
5226.00,1.1983
5225.00,1.1983
5224.00,1.1984
5223.00,1.1986
5222.00,1.1986
5221.00,1.1986
5220.00,1.1987
5219.00,1.1987
5218.00,1.1988
5217.00,1.1988
5216.00,1.1989
5215.00,1.1989
5214.00,1.1989
5213.00,1.1989
5212.00,1.1989
5211.00,1.1990
5210.00,1.1990
5209.00,1.1990
5208.00,1.1990
5207.00,1.1990
5206.00,1.1990
5205.00,1.1990
5204.00,1.1991
5203.00,1.1992
5202.00,1.1993
5201.00,1.1993
5200.00,1.1994
5199.00,1.1994
5198.00,1.1995
5197.00,1.1995
5196.00,1.1996
5195.00,1.1997
5194.00,1.1997
5193.00,1.1998
5192.00,1.1998
5191.00,1.1999
5190.00,1.1999
5189.00,1.1998
5188.00,1.1998
5187.00,1.1998
5186.00,1.1998
5185.00,1.1998
5184.00,1.1998
5183.00,1.1999
5182.00,1.1999
5181.00,1.2000
5180.00,1.2000
5179.00,1.2001
5178.00,1.2002
5177.00,1.2002
5176.00,1.2001
5175.00,1.2001
5174.00,1.2002
5173.00,1.2003
5172.00,1.2005
5171.00,1.2007
5170.00,1.2007
5169.00,1.2008
5168.00,1.2008
5167.00,1.2008
5166.00,1.2008
5165.00,1.2008
5164.00,1.2008
5163.00,1.2009
5162.00,1.2009
5161.00,1.2009
5160.00,1.2010
5159.00,1.2011
5158.00,1.2012
5157.00,1.2012
5156.00,1.2013
5155.00,1.2012
5154.00,1.2012
5153.00,1.2011
5152.00,1.2012
5151.00,1.2013
5150.00,1.2014
5149.00,1.2015
5148.00,1.2016
5147.00,1.2017
5146.00,1.2018
5145.00,1.2019
5144.00,1.2019
5143.00,1.2020
5142.00,1.2019
5141.00,1.2019
5140.00,1.2018
5139.00,1.2018
5138.00,1.2018
5137.00,1.2017
5136.00,1.2017
5135.00,1.2016
5134.00,1.2016
5133.00,1.2016
5132.00,1.2017
5131.00,1.2019
5130.00,1.2021
5129.00,1.2022
5128.00,1.2022
5127.00,1.2022
5126.00,1.2021
5125.00,1.2020
5124.00,1.2020
5123.00,1.2020
5122.00,1.2020
5121.00,1.2019
5120.00,1.2019
5119.00,1.2018
5118.00,1.2018
5117.00,1.2018
5116.00,1.2018
5115.00,1.2019
5114.00,1.2019
5113.00,1.2019
5112.00,1.2019
5111.00,1.2019
5110.00,1.2020
5109.00,1.2021
5108.00,1.2022
5107.00,1.2022
5106.00,1.2022
5105.00,1.2021
5104.00,1.2020
5103.00,1.2019
5102.00,1.2018
5101.00,1.2018
5100.00,1.2017
5099.00,1.2018
5098.00,1.2018
5097.00,1.2018
5096.00,1.2019
5095.00,1.2019
5094.00,1.2019
5093.00,1.2019
5092.00,1.2019
5091.00,1.2019
5090.00,1.2019
5089.00,1.2019
5088.00,1.2019
5087.00,1.2019
5086.00,1.2020
5085.00,1.2020
5084.00,1.2019
5083.00,1.2019
5082.00,1.2018
5081.00,1.2017
5080.00,1.2016
5079.00,1.2016
5078.00,1.2016
5077.00,1.2015
5076.00,1.2015
5075.00,1.2014
5074.00,1.2015
5073.00,1.2015
5072.00,1.2015
5071.00,1.2016
5070.00,1.2017
5069.00,1.2017
5068.00,1.2018
5067.00,1.2019
5066.00,1.2019
5065.00,1.2019
5064.00,1.2019
5063.00,1.2018
5062.00,1.2017
5061.00,1.2016
5060.00,1.2015
5059.00,1.2015
5058.00,1.2015
5057.00,1.2014
5056.00,1.2014
5055.00,1.2014
5054.00,1.2014
5053.00,1.2014
5052.00,1.2014
5051.00,1.2014
5050.00,1.2014
5049.00,1.2014
5048.00,1.2014
5047.00,1.2015
5046.00,1.2015
5045.00,1.2014
5044.00,1.2014
5043.00,1.2013
5042.00,1.2012
5041.00,1.2012
5040.00,1.2013
5039.00,1.2013
5038.00,1.2014
5037.00,1.2013
5036.00,1.2013
5035.00,1.2012
5034.00,1.2011
5033.00,1.2010
5032.00,1.2010
5031.00,1.2010
5030.00,1.2010
5029.00,1.2010
5028.00,1.2010
5027.00,1.2011
5026.00,1.2011
5025.00,1.2011
5024.00,1.2010
5023.00,1.2010
5022.00,1.2009
5021.00,1.2009
5020.00,1.2009
5019.00,1.2009
5018.00,1.2009
5017.00,1.2008
5016.00,1.2008
5015.00,1.2007
5014.00,1.2007
5013.00,1.2007
5012.00,1.2007
5011.00,1.2007
5010.00,1.2007
5009.00,1.2007
5008.00,1.2006
5007.00,1.2006
5006.00,1.2006
5005.00,1.2005
5004.00,1.2005
5003.00,1.2004
5002.00,1.2003
5001.00,1.2002
5000.00,1.2001
4999.00,1.2001
4998.00,1.2000
4997.00,1.2000
4996.00,1.1999
4995.00,1.1999
4994.00,1.1999
4993.00,1.1999
4992.00,1.1999
4991.00,1.1999
4990.00,1.1999
4989.00,1.1998
4988.00,1.1999
4987.00,1.1999
4986.00,1.1999
4985.00,1.1998
4984.00,1.1998
4983.00,1.1997
4982.00,1.1997
4981.00,1.1997
4980.00,1.1997
4979.00,1.1998
4978.00,1.1998
4977.00,1.1998
4976.00,1.1997
4975.00,1.1996
4974.00,1.1996
4973.00,1.1995
4972.00,1.1995
4971.00,1.1994
4970.00,1.1994
4969.00,1.1994
4968.00,1.1994
4967.00,1.1994
4966.00,1.1993
4965.00,1.1992
4964.00,1.1992
4963.00,1.1992
4962.00,1.1992
4961.00,1.1993
4960.00,1.1992
4959.00,1.1992
4958.00,1.1992
4957.00,1.1991
4956.00,1.1991
4955.00,1.1991
4954.00,1.1990
4953.00,1.1990
4952.00,1.1989
4951.00,1.1989
4950.00,1.1988
4949.00,1.1988
4948.00,1.1987
4947.00,1.1987
4946.00,1.1987
4945.00,1.1987
4944.00,1.1987
4943.00,1.1987
4942.00,1.1987
4941.00,1.1986
4940.00,1.1985
4939.00,1.1985
4938.00,1.1985
4937.00,1.1985
4936.00,1.1985
4935.00,1.1985
4934.00,1.1985
4933.00,1.1984
4932.00,1.1983
4931.00,1.1983
4930.00,1.1982
4929.00,1.1981
4928.00,1.1981
4927.00,1.1981
4926.00,1.1981
4925.00,1.1981
4924.00,1.1981
4923.00,1.1981
4922.00,1.1980
4921.00,1.1979
4920.00,1.1978
4919.00,1.1977
4918.00,1.1977
4917.00,1.1977
4916.00,1.1977
4915.00,1.1978
4914.00,1.1978
4913.00,1.1977
4912.00,1.1976
4911.00,1.1975
4910.00,1.1975
4909.00,1.1974
4908.00,1.1974
4907.00,1.1975
4906.00,1.1974
4905.00,1.1973
4904.00,1.1972
4903.00,1.1971
4902.00,1.1971
4901.00,1.1970
4900.00,1.1970
4899.00,1.1970
4898.00,1.1970
4897.00,1.1969
4896.00,1.1968
4895.00,1.1967
4894.00,1.1967
4893.00,1.1966
4892.00,1.1966
4891.00,1.1966
4890.00,1.1965
4889.00,1.1964
4888.00,1.1964
4887.00,1.1964
4886.00,1.1964
4885.00,1.1964
4884.00,1.1964
4883.00,1.1965
4882.00,1.1964
4881.00,1.1964
4880.00,1.1964
4879.00,1.1963
4878.00,1.1963
4877.00,1.1963
4876.00,1.1962
4875.00,1.1962
4874.00,1.1961
4873.00,1.1960
4872.00,1.1959
4871.00,1.1959
4870.00,1.1958
4869.00,1.1958
4868.00,1.1957
4867.00,1.1956
4866.00,1.1955
4865.00,1.1954
4864.00,1.1953
4863.00,1.1953
4862.00,1.1954
4861.00,1.1954
4860.00,1.1954
4859.00,1.1954
4858.00,1.1953
4857.00,1.1953
4856.00,1.1952
4855.00,1.1952
4854.00,1.1953
4853.00,1.1953
4852.00,1.1954
4851.00,1.1954
4850.00,1.1953
4849.00,1.1952
4848.00,1.1952
4847.00,1.1951
4846.00,1.1950
4845.00,1.1949
4844.00,1.1948
4843.00,1.1946
4842.00,1.1945
4841.00,1.1944
4840.00,1.1944
4839.00,1.1944
4838.00,1.1944
4837.00,1.1943
4836.00,1.1943
4835.00,1.1943
4834.00,1.1943
4833.00,1.1942
4832.00,1.1942
4831.00,1.1942
4830.00,1.1942
4829.00,1.1942
4828.00,1.1942
4827.00,1.1942
4826.00,1.1942
4825.00,1.1941
4824.00,1.1940
4823.00,1.1939
4822.00,1.1938
4821.00,1.1937
4820.00,1.1936
4819.00,1.1936
4818.00,1.1935
4817.00,1.1935
4816.00,1.1934
4815.00,1.1934
4814.00,1.1934
4813.00,1.1933
4812.00,1.1933
4811.00,1.1932
4810.00,1.1932
4809.00,1.1932
4808.00,1.1932
4807.00,1.1932
4806.00,1.1931
4805.00,1.1931
4804.00,1.1931
4803.00,1.1930
4802.00,1.1930
4801.00,1.1929
4800.00,1.1928
4799.00,1.1928
4798.00,1.1927
4797.00,1.1926
4796.00,1.1926
4795.00,1.1925
4794.00,1.1925
4793.00,1.1924
4792.00,1.1924
4791.00,1.1923
4790.00,1.1923
4789.00,1.1922
4788.00,1.1920
4787.00,1.1919
4786.00,1.1918
4785.00,1.1917
4784.00,1.1917
4783.00,1.1917
4782.00,1.1917
4781.00,1.1917
4780.00,1.1917
4779.00,1.1917
4778.00,1.1916
4777.00,1.1915
4776.00,1.1914
4775.00,1.1913
4774.00,1.1913
4773.00,1.1912
4772.00,1.1912
4771.00,1.1912
4770.00,1.1912
4769.00,1.1911
4768.00,1.1911
4767.00,1.1910
4766.00,1.1910
4765.00,1.1909
4764.00,1.1909
4763.00,1.1908
4762.00,1.1907
4761.00,1.1907
4760.00,1.1906
4759.00,1.1905
4758.00,1.1904
4757.00,1.1903
