PE IR       SUBTECH     SPECTRUM    ASCII       PEDS        4.00        
   -1
TE110A_060_80K_AFTER_120K_BG.ASC
20/05/14
14:30:31.00
20/05/14
14:30:31.00
Administrator
TE110A.Thursday, May 14 2020, 008.
1000.000000
#HDR
-1
-1
#GR
cm-1
EGY
1.0
0.0
6000.000000
-2.000000
2501
8
105.637915
11.033014
#DATA
6000.000000	16.784422
5998.000000	16.819072
5996.000000	16.853449
5994.000000	16.886795
5992.000000	16.918818
5990.000000	16.950591
5988.000000	16.983042
5986.000000	17.017098
5984.000000	17.051285
5982.000000	17.085111
5980.000000	17.118184
5978.000000	17.151455
5976.000000	17.184937
5974.000000	17.219800
5972.000000	17.254573
5970.000000	17.288619
5968.000000	17.322167
5966.000000	17.355590
5964.000000	17.389330
5962.000000	17.423867
5960.000000	17.458127
5958.000000	17.492550
5956.000000	17.527595
5954.000000	17.563406
5952.000000	17.599023
5950.000000	17.633302
5948.000000	17.666424
5946.000000	17.700258
5944.000000	17.735387
5942.000000	17.769665
5940.000000	17.803127
5938.000000	17.837456
5936.000000	17.871705
5934.000000	17.906139
5932.000000	17.939598
5930.000000	17.973606
5928.000000	18.008169
5926.000000	18.042576
5924.000000	18.077537
5922.000000	18.112906
5920.000000	18.149063
5918.000000	18.184641
5916.000000	18.221034
5914.000000	18.258437
5912.000000	18.295565
5910.000000	18.332212
5908.000000	18.367720
5906.000000	18.404289
5904.000000	18.441745
5902.000000	18.479909
5900.000000	18.518003
5898.000000	18.554933
5896.000000	18.590744
5894.000000	18.627665
5892.000000	18.664852
5890.000000	18.702364
5888.000000	18.737950
5886.000000	18.772451
5884.000000	18.807994
5882.000000	18.845388
5880.000000	18.882444
5878.000000	18.918662
5876.000000	18.954371
5874.000000	18.991560
5872.000000	19.029031
5870.000000	19.065899
5868.000000	19.102189
5866.000000	19.139536
5864.000000	19.177203
5862.000000	19.214302
5860.000000	19.251608
5858.000000	19.289512
5856.000000	19.328281
5854.000000	19.366817
5852.000000	19.405425
5850.000000	19.445279
5848.000000	19.486618
5846.000000	19.527488
5844.000000	19.566736
5842.000000	19.605782
5840.000000	19.646859
5838.000000	19.689756
5836.000000	19.732497
5834.000000	19.774376
5832.000000	19.815568
5830.000000	19.856918
5828.000000	19.898630
5826.000000	19.940892
5824.000000	19.982011
5822.000000	20.022615
5820.000000	20.063473
5818.000000	20.105076
5816.000000	20.147254
5814.000000	20.188299
5812.000000	20.228442
5810.000000	20.268863
5808.000000	20.309513
5806.000000	20.351229
5804.000000	20.392216
5802.000000	20.433160
5800.000000	20.474405
5798.000000	20.515908
5796.000000	20.556864
5794.000000	20.597286
5792.000000	20.637965
5790.000000	20.679427
5788.000000	20.721393
5786.000000	20.763601
5784.000000	20.805059
5782.000000	20.846711
5780.000000	20.888118
5778.000000	20.930065
5776.000000	20.972410
5774.000000	21.015195
5772.000000	21.057692
5770.000000	21.099823
5768.000000	21.142207
5766.000000	21.184697
5764.000000	21.226603
5762.000000	21.268836
5760.000000	21.311397
5758.000000	21.355669
5756.000000	21.399068
5754.000000	21.441807
5752.000000	21.483152
5750.000000	21.523775
5748.000000	21.563933
5746.000000	21.604869
5744.000000	21.646691
5742.000000	21.689500
5740.000000	21.730821
5738.000000	21.771193
5736.000000	21.811789
5734.000000	21.852166
5732.000000	21.892141
5730.000000	21.931905
5728.000000	21.973013
5726.000000	22.015759
5724.000000	22.058118
5722.000000	22.099359
5720.000000	22.140516
5718.000000	22.183281
5716.000000	22.227449
5714.000000	22.272102
5712.000000	22.316259
5710.000000	22.360511
5708.000000	22.404739
5706.000000	22.449075
5704.000000	22.493233
5702.000000	22.537097
5700.000000	22.580628
5698.000000	22.625460
5696.000000	22.671853
5694.000000	22.718488
5692.000000	22.763894
5690.000000	22.808721
5688.000000	22.854130
5686.000000	22.900440
5684.000000	22.946172
5682.000000	22.992023
5680.000000	23.038248
5678.000000	23.084554
5676.000000	23.130333
5674.000000	23.176271
5672.000000	23.222338
5670.000000	23.267563
5668.000000	23.312318
5666.000000	23.357337
5664.000000	23.402771
5662.000000	23.448718
5660.000000	23.494820
5658.000000	23.541361
5656.000000	23.587793
5654.000000	23.633357
5652.000000	23.678502
5650.000000	23.723966
5648.000000	23.770264
5646.000000	23.816681
5644.000000	23.862494
5642.000000	23.908278
5640.000000	23.953398
5638.000000	23.998867
5636.000000	24.044921
5634.000000	24.091732
5632.000000	24.138259
5630.000000	24.183539
5628.000000	24.229369
5626.000000	24.274878
5624.000000	24.319289
5622.000000	24.364251
5620.000000	24.409940
5618.000000	24.456781
5616.000000	24.503040
5614.000000	24.549188
5612.000000	24.595317
5610.000000	24.641648
5608.000000	24.688054
5606.000000	24.734084
5604.000000	24.779620
5602.000000	24.825108
5600.000000	24.871666
5598.000000	24.918505
5596.000000	24.963111
5594.000000	25.008084
5592.000000	25.054565
5590.000000	25.103228
5588.000000	25.151636
5586.000000	25.198600
5584.000000	25.245246
5582.000000	25.292009
5580.000000	25.339581
5578.000000	25.388259
5576.000000	25.436058
5574.000000	25.484047
5572.000000	25.531872
5570.000000	25.580101
5568.000000	25.627907
5566.000000	25.675664
5564.000000	25.723398
5562.000000	25.772102
5560.000000	25.820653
5558.000000	25.868454
5556.000000	25.915147
5554.000000	25.962039
5552.000000	26.010542
5550.000000	26.059894
5548.000000	26.108876
5546.000000	26.156806
5544.000000	26.203209
5542.000000	26.249763
5540.000000	26.296932
5538.000000	26.344490
5536.000000	26.392072
5534.000000	26.441214
5532.000000	26.490947
5530.000000	26.539056
5528.000000	26.585383
5526.000000	26.632141
5524.000000	26.679167
5522.000000	26.726140
5520.000000	26.772148
5518.000000	26.819773
5516.000000	26.868875
5514.000000	26.918553
5512.000000	26.965751
5510.000000	27.009984
5508.000000	27.054786
5506.000000	27.103546
5504.000000	27.154566
5502.000000	27.204517
5500.000000	27.253321
5498.000000	27.299014
5496.000000	27.339746
5494.000000	27.380379
5492.000000	27.425747
5490.000000	27.478089
5488.000000	27.533928
5486.000000	27.591537
5484.000000	27.647718
5482.000000	27.699658
5480.000000	27.742431
5478.000000	27.777333
5476.000000	27.817731
5474.000000	27.871155
5472.000000	27.930402
5470.000000	27.983043
5468.000000	28.030000
5466.000000	28.077102
5464.000000	28.122740
5462.000000	28.169558
5460.000000	28.221355
5458.000000	28.278253
5456.000000	28.335298
5454.000000	28.386838
5452.000000	28.430653
5450.000000	28.467394
5448.000000	28.503465
5446.000000	28.545127
5444.000000	28.592629
5442.000000	28.649118
5440.000000	28.706677
5438.000000	28.756435
5436.000000	28.801729
5434.000000	28.847165
5432.000000	28.892223
5430.000000	28.937688
5428.000000	28.992433
5426.000000	29.059291
5424.000000	29.124872
5422.000000	29.182335
5420.000000	29.232415
5418.000000	29.266494
5416.000000	29.288455
5414.000000	29.316845
5412.000000	29.365351
5410.000000	29.432532
5408.000000	29.500883
5406.000000	29.563687
5404.000000	29.619821
5402.000000	29.671765
5400.000000	29.718095
5398.000000	29.754108
5396.000000	29.787221
5394.000000	29.835196
5392.000000	29.899183
5390.000000	29.961244
5388.000000	30.007528
5386.000000	30.052941
5384.000000	30.109843
5382.000000	30.167796
5380.000000	30.208311
5378.000000	30.242987
5376.000000	30.292027
5374.000000	30.360125
5372.000000	30.429655
5370.000000	30.488857
5368.000000	30.537904
5366.000000	30.583751
5364.000000	30.632228
5362.000000	30.686508
5360.000000	30.741392
5358.000000	30.785194
5356.000000	30.816545
5354.000000	30.853508
5352.000000	30.906000
5350.000000	30.962779
5348.000000	31.001607
5346.000000	31.036428
5344.000000	31.085205
5342.000000	31.138696
5340.000000	31.186100
5338.000000	31.238137
5336.000000	31.304762
5334.000000	31.373030
5332.000000	31.427579
5330.000000	31.473274
5328.000000	31.523186
5326.000000	31.582381
5324.000000	31.647623
5322.000000	31.707176
5320.000000	31.758813
5318.000000	31.807851
5316.000000	31.857397
5314.000000	31.908704
5312.000000	31.956370
5310.000000	31.999221
5308.000000	32.044565
5306.000000	32.099161
5304.000000	32.158800
5302.000000	32.215029
5300.000000	32.267439
5298.000000	32.320446
5296.000000	32.372882
5294.000000	32.417597
5292.000000	32.457746
5290.000000	32.504875
5288.000000	32.560298
5286.000000	32.617999
5284.000000	32.672662
5282.000000	32.729406
5280.000000	32.787264
5278.000000	32.844663
5276.000000	32.899864
5274.000000	32.951492
5272.000000	32.998657
5270.000000	33.043258
5268.000000	33.081342
5266.000000	33.115685
5264.000000	33.158864
5262.000000	33.221056
5260.000000	33.289831
5258.000000	33.344481
5256.000000	33.391565
5254.000000	33.443934
5252.000000	33.494935
5250.000000	33.536247
5248.000000	33.577250
5246.000000	33.632339
5244.000000	33.699462
5242.000000	33.768240
5240.000000	33.833144
5238.000000	33.888798
5236.000000	33.936697
5234.000000	33.981688
5232.000000	34.029622
5230.000000	34.077468
5228.000000	34.119683
5226.000000	34.164975
5224.000000	34.222383
5222.000000	34.286493
5220.000000	34.344406
5218.000000	34.399091
5216.000000	34.456237
5214.000000	34.511524
5212.000000	34.554193
5210.000000	34.584082
5208.000000	34.618025
5206.000000	34.675963
5204.000000	34.752193
5202.000000	34.824216
5200.000000	34.878605
5198.000000	34.928109
5196.000000	34.983377
5194.000000	35.043268
5192.000000	35.099699
5190.000000	35.151509
5188.000000	35.200497
5186.000000	35.251917
5184.000000	35.308160
5182.000000	35.367781
5180.000000	35.426221
5178.000000	35.482839
5176.000000	35.537977
5174.000000	35.590959
5172.000000	35.644954
5170.000000	35.701335
5168.000000	35.756100
5166.000000	35.807899
5164.000000	35.860660
5162.000000	35.916683
5160.000000	35.971873
5158.000000	36.025267
5156.000000	36.079969
5154.000000	36.137706
5152.000000	36.195469
5150.000000	36.251647
5148.000000	36.306501
5146.000000	36.359926
5144.000000	36.411500
5142.000000	36.464195
5140.000000	36.519886
5138.000000	36.576293
5136.000000	36.629988
5134.000000	36.683203
5132.000000	36.738039
5130.000000	36.795036
5128.000000	36.850718
5126.000000	36.904857
5124.000000	36.958050
5122.000000	37.011583
5120.000000	37.065206
5118.000000	37.119730
5116.000000	37.175369
5114.000000	37.230572
5112.000000	37.284569
5110.000000	37.339870
5108.000000	37.396150
5106.000000	37.452228
5104.000000	37.506935
5102.000000	37.562813
5100.000000	37.618660
5098.000000	37.673855
5096.000000	37.729349
5094.000000	37.786815
5092.000000	37.845137
5090.000000	37.902859
5088.000000	37.959747
5086.000000	38.015730
5084.000000	38.071205
5082.000000	38.128046
5080.000000	38.186535
5078.000000	38.244896
5076.000000	38.300852
5074.000000	38.355710
5072.000000	38.411836
5070.000000	38.470175
5068.000000	38.527616
5066.000000	38.584079
5064.000000	38.640295
5062.000000	38.697171
5060.000000	38.753592
5058.000000	38.810068
5056.000000	38.867018
5054.000000	38.924228
5052.000000	38.980770
5050.000000	39.036980
5048.000000	39.092784
5046.000000	39.148886
5044.000000	39.204869
5042.000000	39.261282
5040.000000	39.317304
5038.000000	39.372829
5036.000000	39.428355
5034.000000	39.484421
5032.000000	39.540507
5030.000000	39.596838
5028.000000	39.652936
5026.000000	39.709235
5024.000000	39.765519
5022.000000	39.822839
5020.000000	39.879889
5018.000000	39.936904
5016.000000	39.993056
5014.000000	40.049255
5012.000000	40.105177
5010.000000	40.161969
5008.000000	40.219240
5006.000000	40.277421
5004.000000	40.335102
5002.000000	40.392114
5000.000000	40.449385
4998.000000	40.508541
4996.000000	40.568171
4994.000000	40.626886
4992.000000	40.684362
4990.000000	40.742247
4988.000000	40.801115
4986.000000	40.860492
4984.000000	40.918819
4982.000000	40.977175
4980.000000	41.035481
4978.000000	41.094292
4976.000000	41.152518
4974.000000	41.210939
4972.000000	41.268453
4970.000000	41.325752
4968.000000	41.383481
4966.000000	41.442288
4964.000000	41.500322
4962.000000	41.557536
4960.000000	41.615180
4958.000000	41.673891
4956.000000	41.732251
4954.000000	41.789857
4952.000000	41.845683
4950.000000	41.900972
4948.000000	41.957143
4946.000000	42.015910
4944.000000	42.074489
4942.000000	42.131957
4940.000000	42.188437
4938.000000	42.245345
4936.000000	42.302176
4934.000000	42.358426
4932.000000	42.414899
4930.000000	42.472588
4928.000000	42.530236
4926.000000	42.586684
4924.000000	42.642419
4922.000000	42.699460
4920.000000	42.756821
4918.000000	42.814732
4916.000000	42.873770
4914.000000	42.933659
4912.000000	42.991566
4910.000000	43.048705
4908.000000	43.107055
4906.000000	43.166617
4904.000000	43.224781
4902.000000	43.283308
4900.000000	43.343072
4898.000000	43.403931
4896.000000	43.463586
4894.000000	43.522432
4892.000000	43.580890
4890.000000	43.639729
4888.000000	43.699065
4886.000000	43.759339
4884.000000	43.819274
4882.000000	43.878951
4880.000000	43.939078
4878.000000	43.999395
4876.000000	44.057897
4874.000000	44.116114
4872.000000	44.174402
4870.000000	44.233329
4868.000000	44.292665
4866.000000	44.352625
4864.000000	44.411658
4862.000000	44.470426
4860.000000	44.529012
4858.000000	44.587325
4856.000000	44.644539
4854.000000	44.702048
4852.000000	44.759955
4850.000000	44.819011
4848.000000	44.877145
4846.000000	44.934607
4844.000000	44.991164
4842.000000	45.048881
4840.000000	45.107323
4838.000000	45.165851
4836.000000	45.223263
4834.000000	45.280730
4832.000000	45.339109
4830.000000	45.398121
4828.000000	45.456165
4826.000000	45.513934
4824.000000	45.571507
4822.000000	45.630137
4820.000000	45.688561
4818.000000	45.747451
4816.000000	45.805733
4814.000000	45.864629
4812.000000	45.923764
4810.000000	45.984154
4808.000000	46.044501
4806.000000	46.105247
4804.000000	46.165555
4802.000000	46.225474
4800.000000	46.284625
4798.000000	46.345487
4796.000000	46.407133
4794.000000	46.468106
4792.000000	46.528186
4790.000000	46.590030
4788.000000	46.651596
4786.000000	46.711528
4784.000000	46.770159
4782.000000	46.830069
4780.000000	46.890551
4778.000000	46.951509
4776.000000	47.011951
4774.000000	47.072415
4772.000000	47.132294
4770.000000	47.192058
4768.000000	47.250806
4766.000000	47.309686
4764.000000	47.368743
4762.000000	47.428925
4760.000000	47.487970
4758.000000	47.546422
4756.000000	47.605365
4754.000000	47.665226
4752.000000	47.723138
4750.000000	47.780828
4748.000000	47.839349
4746.000000	47.898771
4744.000000	47.957253
4742.000000	48.015174
4740.000000	48.072306
4738.000000	48.130162
4736.000000	48.188463
4734.000000	48.247893
4732.000000	48.307262
4730.000000	48.366250
4728.000000	48.424028
4726.000000	48.482508
4724.000000	48.541944
4722.000000	48.602822
4720.000000	48.663065
4718.000000	48.723070
4716.000000	48.783959
4714.000000	48.846766
4712.000000	48.909487
4710.000000	48.971733
4708.000000	49.033773
4706.000000	49.097234
4704.000000	49.160375
4702.000000	49.224081
4700.000000	49.287854
4698.000000	49.351357
4696.000000	49.413064
4694.000000	49.474474
4692.000000	49.535484
4690.000000	49.597394
4688.000000	49.659684
4686.000000	49.721156
4684.000000	49.780813
4682.000000	49.841567
4680.000000	49.904077
4678.000000	49.967172
4676.000000	50.029058
4674.000000	50.091044
4672.000000	50.153145
4670.000000	50.214836
4668.000000	50.275454
4666.000000	50.336967
4664.000000	50.399230
4662.000000	50.461326
4660.000000	50.522495
4658.000000	50.584018
4656.000000	50.644926
4654.000000	50.705898
4652.000000	50.766211
4650.000000	50.826952
4648.000000	50.887957
4646.000000	50.949878
4644.000000	51.011135
4642.000000	51.072835
4640.000000	51.133773
4638.000000	51.194435
4636.000000	51.254516
4634.000000	51.316106
4632.000000	51.377875
4630.000000	51.439018
4628.000000	51.499525
4626.000000	51.561580
4624.000000	51.623872
4622.000000	51.686518
4620.000000	51.749097
4618.000000	51.812227
4616.000000	51.876106
4614.000000	51.940478
4612.000000	52.002802
4610.000000	52.066129
4608.000000	52.131091
4606.000000	52.196417
4604.000000	52.261332
4602.000000	52.327591
4600.000000	52.393365
4598.000000	52.459406
4596.000000	52.524170
4594.000000	52.588080
4592.000000	52.651972
4590.000000	52.717596
4588.000000	52.783201
4586.000000	52.849102
4584.000000	52.913512
4582.000000	52.976274
4580.000000	53.038496
4578.000000	53.103459
4576.000000	53.168845
4574.000000	53.233045
4572.000000	53.296205
4570.000000	53.360092
4568.000000	53.423706
4566.000000	53.487716
4564.000000	53.551180
4562.000000	53.615285
4560.000000	53.678978
4558.000000	53.742151
4556.000000	53.804685
4554.000000	53.867713
4552.000000	53.929299
4550.000000	53.990813
4548.000000	54.054172
4546.000000	54.119441
4544.000000	54.182834
4542.000000	54.244831
4540.000000	54.307208
4538.000000	54.370280
4536.000000	54.431670
4534.000000	54.494068
4532.000000	54.557729
4530.000000	54.621039
4528.000000	54.683856
4526.000000	54.748920
4524.000000	54.813971
4522.000000	54.878674
4520.000000	54.943193
4518.000000	55.008050
4516.000000	55.071125
4514.000000	55.134065
4512.000000	55.198477
4510.000000	55.265317
4508.000000	55.331571
4506.000000	55.397007
4504.000000	55.461582
4502.000000	55.527102
4500.000000	55.592575
4498.000000	55.659474
4496.000000	55.726709
4494.000000	55.792640
4492.000000	55.856666
4490.000000	55.921782
4488.000000	55.986879
4486.000000	56.052194
4484.000000	56.117463
4482.000000	56.183173
4480.000000	56.247740
4478.000000	56.312305
4476.000000	56.375903
4474.000000	56.438988
4472.000000	56.501666
4470.000000	56.565299
4468.000000	56.628556
4466.000000	56.691578
4464.000000	56.753481
4462.000000	56.815888
4460.000000	56.879047
4458.000000	56.941742
4456.000000	57.002527
4454.000000	57.064252
4452.000000	57.127024
4450.000000	57.189880
4448.000000	57.252012
4446.000000	57.314400
4444.000000	57.376853
4442.000000	57.440052
4440.000000	57.502255
4438.000000	57.564819
4436.000000	57.627811
4434.000000	57.691035
4432.000000	57.752954
4430.000000	57.816037
4428.000000	57.880259
4426.000000	57.944738
4424.000000	58.007557
4422.000000	58.071068
4420.000000	58.134756
4418.000000	58.198961
4416.000000	58.263967
4414.000000	58.329982
4412.000000	58.394368
4410.000000	58.457656
4408.000000	58.521505
4406.000000	58.587684
4404.000000	58.653130
4402.000000	58.717628
4400.000000	58.782001
4398.000000	58.846509
4396.000000	58.909752
4394.000000	58.973108
4392.000000	59.035873
4390.000000	59.099143
4388.000000	59.161145
4386.000000	59.222566
4384.000000	59.284605
4382.000000	59.347826
4380.000000	59.409002
4378.000000	59.469476
4376.000000	59.529861
4374.000000	59.590725
4372.000000	59.650020
4370.000000	59.708471
4368.000000	59.767426
4366.000000	59.828810
4364.000000	59.889551
4362.000000	59.950221
4360.000000	60.011707
4358.000000	60.075234
4356.000000	60.138783
4354.000000	60.201031
4352.000000	60.262271
4350.000000	60.325511
4348.000000	60.388470
4346.000000	60.452329
4344.000000	60.516541
4342.000000	60.580147
4340.000000	60.642945
4338.000000	60.706818
4336.000000	60.770407
4334.000000	60.834538
4332.000000	60.898024
4330.000000	60.962132
4328.000000	61.026609
4326.000000	61.092712
4324.000000	61.159431
4322.000000	61.226894
4320.000000	61.294109
4318.000000	61.361653
4316.000000	61.428776
4314.000000	61.496653
4312.000000	61.564220
4310.000000	61.632127
4308.000000	61.699619
4306.000000	61.767056
4304.000000	61.833339
4302.000000	61.899324
4300.000000	61.964553
4298.000000	62.029895
4296.000000	62.095407
4294.000000	62.161528
4292.000000	62.225862
