PE IR       SUBTECH     SPECTRUM    ASCII       PEDS        4.00        
   -1
TE110A_100_80K_AFTER_160K_BG.ASC
20/05/14
17:22:59.00
20/05/14
17:22:59.00
Administrator
TE110A.Thursday, May 14 2020, 010.
1000.000000
#HDR
-1
-1
#GR
cm-1
EGY
1.0
0.0
6000.000000
-2.000000
2501
8
105.612542
11.044638
#DATA
6000.000000	16.814985
5998.000000	16.849135
5996.000000	16.881150
5994.000000	16.913245
5992.000000	16.945869
5990.000000	16.979414
5988.000000	17.013226
5986.000000	17.048040
5984.000000	17.082106
5982.000000	17.114553
5980.000000	17.146882
5978.000000	17.180338
5976.000000	17.214866
5974.000000	17.249444
5972.000000	17.282651
5970.000000	17.316424
5968.000000	17.350690
5966.000000	17.385076
5964.000000	17.419541
5962.000000	17.454261
5960.000000	17.488590
5958.000000	17.523244
5956.000000	17.557982
5954.000000	17.593281
5952.000000	17.627901
5950.000000	17.661805
5948.000000	17.694850
5946.000000	17.728658
5944.000000	17.762757
5942.000000	17.797037
5940.000000	17.831265
5938.000000	17.865209
5936.000000	17.899079
5934.000000	17.932824
5932.000000	17.966594
5930.000000	18.001490
5928.000000	18.036560
5926.000000	18.071487
5924.000000	18.106318
5922.000000	18.142379
5920.000000	18.178740
5918.000000	18.214633
5916.000000	18.249397
5914.000000	18.284648
5912.000000	18.321358
5910.000000	18.359404
5908.000000	18.397022
5906.000000	18.434872
5904.000000	18.471950
5902.000000	18.509936
5900.000000	18.547156
5898.000000	18.583757
5896.000000	18.619373
5894.000000	18.654531
5892.000000	18.689639
5890.000000	18.725702
5888.000000	18.762313
5886.000000	18.799362
5884.000000	18.835623
5882.000000	18.872041
5880.000000	18.907828
5878.000000	18.944150
5876.000000	18.980187
5874.000000	19.017567
5872.000000	19.055629
5870.000000	19.093307
5868.000000	19.130390
5866.000000	19.167458
5864.000000	19.204154
5862.000000	19.241455
5860.000000	19.278923
5858.000000	19.317354
5856.000000	19.355857
5854.000000	19.394258
5852.000000	19.433302
5850.000000	19.473425
5848.000000	19.513277
5846.000000	19.552978
5844.000000	19.592607
5842.000000	19.633966
5840.000000	19.675637
5838.000000	19.717266
5836.000000	19.758379
5834.000000	19.800042
5832.000000	19.841726
5830.000000	19.883754
5828.000000	19.925564
5826.000000	19.968653
5824.000000	20.010500
5822.000000	20.051629
5820.000000	20.091240
5818.000000	20.130892
5816.000000	20.171604
5814.000000	20.213017
5812.000000	20.254516
5810.000000	20.296495
5808.000000	20.337709
5806.000000	20.378852
5804.000000	20.419341
5802.000000	20.460273
5800.000000	20.501150
5798.000000	20.541962
5796.000000	20.581751
5794.000000	20.623134
5792.000000	20.664973
5790.000000	20.706280
5788.000000	20.747291
5786.000000	20.788673
5784.000000	20.831261
5782.000000	20.874321
5780.000000	20.915874
5778.000000	20.957640
5776.000000	20.999264
5774.000000	21.041872
5772.000000	21.084552
5770.000000	21.127202
5768.000000	21.169657
5766.000000	21.212767
5764.000000	21.255414
5762.000000	21.297763
5760.000000	21.338968
5758.000000	21.380709
5756.000000	21.422339
5754.000000	21.464266
5752.000000	21.506267
5750.000000	21.548405
5748.000000	21.590569
5746.000000	21.633237
5744.000000	21.675656
5742.000000	21.717671
5740.000000	21.757105
5738.000000	21.797052
5736.000000	21.837996
5734.000000	21.879617
5732.000000	21.920057
5730.000000	21.960724
5728.000000	22.001296
5726.000000	22.042558
5724.000000	22.083205
5722.000000	22.125423
5720.000000	22.169287
5718.000000	22.214063
5716.000000	22.258100
5714.000000	22.301325
5712.000000	22.343893
5710.000000	22.387151
5708.000000	22.431775
5706.000000	22.476730
5704.000000	22.521584
5702.000000	22.566309
5700.000000	22.610151
5698.000000	22.655012
5696.000000	22.699612
5694.000000	22.744999
5692.000000	22.789908
5690.000000	22.835409
5688.000000	22.881210
5686.000000	22.927430
5684.000000	22.972972
5682.000000	23.018662
5680.000000	23.064355
5678.000000	23.110130
5676.000000	23.155442
5674.000000	23.200217
5672.000000	23.245196
5670.000000	23.291847
5668.000000	23.338626
5666.000000	23.385480
5664.000000	23.430787
5662.000000	23.476053
5660.000000	23.521396
5658.000000	23.567661
5656.000000	23.613592
5654.000000	23.660223
5652.000000	23.706062
5650.000000	23.751237
5648.000000	23.795839
5646.000000	23.841839
5644.000000	23.888074
5642.000000	23.934425
5640.000000	23.979790
5638.000000	24.026278
5636.000000	24.071990
5634.000000	24.116781
5632.000000	24.161608
5630.000000	24.208242
5628.000000	24.254924
5626.000000	24.300527
5624.000000	24.344915
5622.000000	24.390999
5620.000000	24.438302
5618.000000	24.485281
5616.000000	24.530677
5614.000000	24.575847
5612.000000	24.620526
5610.000000	24.666303
5608.000000	24.711926
5606.000000	24.758240
5604.000000	24.803528
5602.000000	24.849566
5600.000000	24.896330
5598.000000	24.943929
5596.000000	24.991292
5594.000000	25.039126
5592.000000	25.086705
5590.000000	25.134152
5588.000000	25.179760
5586.000000	25.225242
5584.000000	25.271634
5582.000000	25.319241
5580.000000	25.366569
5578.000000	25.413504
5576.000000	25.461396
5574.000000	25.511110
5572.000000	25.559692
5570.000000	25.608010
5568.000000	25.654900
5566.000000	25.702838
5564.000000	25.751494
5562.000000	25.801396
5560.000000	25.850441
5558.000000	25.898072
5556.000000	25.943252
5554.000000	25.989370
5552.000000	26.035857
5550.000000	26.084054
5548.000000	26.132700
5546.000000	26.181179
5544.000000	26.229218
5542.000000	26.277453
5540.000000	26.324229
5538.000000	26.371552
5536.000000	26.419760
5534.000000	26.470070
5532.000000	26.519319
5530.000000	26.566689
5528.000000	26.613194
5526.000000	26.659537
5524.000000	26.705829
5522.000000	26.753470
5520.000000	26.801337
5518.000000	26.849577
5516.000000	26.897576
5514.000000	26.946923
5512.000000	26.994061
5510.000000	27.037682
5508.000000	27.081428
5506.000000	27.129709
5504.000000	27.181260
5502.000000	27.231776
5500.000000	27.280497
5498.000000	27.327644
5496.000000	27.369607
5494.000000	27.410334
5492.000000	27.454701
5490.000000	27.507537
5488.000000	27.564621
5486.000000	27.622236
5484.000000	27.676944
5482.000000	27.727743
5480.000000	27.769854
5478.000000	27.805659
5476.000000	27.846584
5474.000000	27.900748
5472.000000	27.960540
5470.000000	28.014212
5468.000000	28.061367
5466.000000	28.107401
5464.000000	28.152015
5462.000000	28.198858
5460.000000	28.250700
5458.000000	28.307931
5456.000000	28.364632
5454.000000	28.415396
5452.000000	28.457605
5450.000000	28.494167
5448.000000	28.531359
5446.000000	28.575922
5444.000000	28.624053
5442.000000	28.679388
5440.000000	28.735499
5438.000000	28.786261
5436.000000	28.832371
5434.000000	28.877912
5432.000000	28.922262
5430.000000	28.968502
5428.000000	29.023582
5426.000000	29.090972
5424.000000	29.156384
5422.000000	29.212878
5420.000000	29.261573
5418.000000	29.296132
5416.000000	29.319849
5414.000000	29.349235
5412.000000	29.397028
5410.000000	29.463910
5408.000000	29.532360
5406.000000	29.595738
5404.000000	29.651396
5402.000000	29.703525
5400.000000	29.749967
5398.000000	29.786655
5396.000000	29.819189
5394.000000	29.865801
5392.000000	29.927645
5390.000000	29.989380
5388.000000	30.037090
5386.000000	30.084360
5384.000000	30.141817
5382.000000	30.199900
5380.000000	30.240755
5378.000000	30.275680
5376.000000	30.323928
5374.000000	30.390696
5372.000000	30.459252
5370.000000	30.519380
5368.000000	30.569072
5366.000000	30.614490
5364.000000	30.662767
5362.000000	30.718601
5360.000000	30.774330
5358.000000	30.817777
5356.000000	30.848808
5354.000000	30.885865
5352.000000	30.937444
5350.000000	30.994439
5348.000000	31.034910
5346.000000	31.071106
5344.000000	31.119102
5342.000000	31.172356
5340.000000	31.219987
5338.000000	31.271408
5336.000000	31.337206
5334.000000	31.406833
5332.000000	31.463041
5330.000000	31.508448
5328.000000	31.556256
5326.000000	31.613912
5324.000000	31.677863
5322.000000	31.737800
5320.000000	31.791132
5318.000000	31.842138
5316.000000	31.891796
5314.000000	31.942503
5312.000000	31.989334
5310.000000	32.031787
5308.000000	32.077329
5306.000000	32.132355
5304.000000	32.190504
5302.000000	32.245284
5300.000000	32.297708
5298.000000	32.352292
5296.000000	32.404631
5294.000000	32.448923
5292.000000	32.490297
5290.000000	32.539151
5288.000000	32.594879
5286.000000	32.652139
5284.000000	32.706399
5282.000000	32.761712
5280.000000	32.817413
5278.000000	32.874659
5276.000000	32.930658
5274.000000	32.982404
5272.000000	33.028084
5270.000000	33.073154
5268.000000	33.113383
5266.000000	33.151180
5264.000000	33.195836
5262.000000	33.258072
5260.000000	33.325837
5258.000000	33.380399
5256.000000	33.426961
5254.000000	33.478405
5252.000000	33.528210
5250.000000	33.570245
5248.000000	33.612136
5246.000000	33.667917
5244.000000	33.734627
5242.000000	33.803087
5240.000000	33.866630
5238.000000	33.921299
5236.000000	33.969114
5234.000000	34.015080
5232.000000	34.064423
5230.000000	34.112917
5228.000000	34.154811
5226.000000	34.199661
5224.000000	34.256818
5222.000000	34.321400
5220.000000	34.381043
5218.000000	34.438125
5216.000000	34.495496
5214.000000	34.549144
5212.000000	34.590800
5210.000000	34.621638
5208.000000	34.656176
5206.000000	34.712944
5204.000000	34.786693
5202.000000	34.857290
5200.000000	34.912595
5198.000000	34.964088
5196.000000	35.020514
5194.000000	35.079976
5192.000000	35.134590
5190.000000	35.185011
5188.000000	35.233437
5186.000000	35.286073
5184.000000	35.343100
5182.000000	35.402814
5180.000000	35.459978
5178.000000	35.516279
5176.000000	35.572527
5174.000000	35.628523
5172.000000	35.683111
5170.000000	35.738105
5168.000000	35.791789
5166.000000	35.844878
5164.000000	35.898244
5162.000000	35.953306
5160.000000	36.007300
5158.000000	36.061315
5156.000000	36.117022
5154.000000	36.174139
5152.000000	36.230258
5150.000000	36.285576
5148.000000	36.339998
5146.000000	36.394409
5144.000000	36.447195
5142.000000	36.501000
5140.000000	36.556563
5138.000000	36.613546
5136.000000	36.667389
5134.000000	36.720165
5132.000000	36.774021
5130.000000	36.829787
5128.000000	36.884820
5126.000000	36.940237
5124.000000	36.994741
5122.000000	37.048593
5120.000000	37.102164
5118.000000	37.156720
5116.000000	37.210718
5114.000000	37.265282
5112.000000	37.321374
5110.000000	37.378616
5108.000000	37.433344
5106.000000	37.487257
5104.000000	37.542493
5102.000000	37.600147
5100.000000	37.656616
5098.000000	37.711587
5096.000000	37.766657
5094.000000	37.824337
5092.000000	37.882475
5090.000000	37.939907
5088.000000	37.995832
5086.000000	38.052640
5084.000000	38.109444
5082.000000	38.167001
5080.000000	38.223948
5078.000000	38.281620
5076.000000	38.338488
5074.000000	38.395164
5072.000000	38.451758
5070.000000	38.508973
5068.000000	38.566093
5066.000000	38.623716
5064.000000	38.681166
5062.000000	38.738174
5060.000000	38.794135
5058.000000	38.850806
5056.000000	38.906495
5054.000000	38.962212
5052.000000	39.018300
5050.000000	39.075537
5048.000000	39.131719
5046.000000	39.187770
5044.000000	39.243590
5042.000000	39.300201
5040.000000	39.356084
5038.000000	39.412346
5036.000000	39.467882
5034.000000	39.523812
5032.000000	39.579020
5030.000000	39.634955
5028.000000	39.691414
5026.000000	39.749553
5024.000000	39.807531
5022.000000	39.864461
5020.000000	39.920058
5018.000000	39.976468
5016.000000	40.031890
5014.000000	40.087516
5012.000000	40.144557
5010.000000	40.203980
5008.000000	40.261816
5006.000000	40.318911
5004.000000	40.375389
5002.000000	40.432925
5000.000000	40.491049
4998.000000	40.550170
4996.000000	40.608194
4994.000000	40.666147
4992.000000	40.723642
4990.000000	40.781847
4988.000000	40.840039
4986.000000	40.899256
4984.000000	40.957891
4982.000000	41.016666
4980.000000	41.075646
4978.000000	41.135557
4976.000000	41.194299
4974.000000	41.252095
4972.000000	41.308750
4970.000000	41.366139
4968.000000	41.424170
4966.000000	41.483334
4964.000000	41.542022
4962.000000	41.600398
4960.000000	41.657718
4958.000000	41.715556
4956.000000	41.772262
4954.000000	41.829062
4952.000000	41.885433
4950.000000	41.943119
4948.000000	42.000605
4946.000000	42.058804
4944.000000	42.116422
4942.000000	42.173832
4940.000000	42.229975
4938.000000	42.286416
4936.000000	42.342114
4934.000000	42.399289
4932.000000	42.456574
4930.000000	42.514365
4928.000000	42.571029
4926.000000	42.627846
4924.000000	42.683653
4922.000000	42.741263
4920.000000	42.799942
4918.000000	42.858615
4916.000000	42.915683
4914.000000	42.973570
4912.000000	43.031200
4910.000000	43.089888
4908.000000	43.149073
4906.000000	43.208527
4904.000000	43.266294
4902.000000	43.325621
4900.000000	43.385724
4898.000000	43.445156
4896.000000	43.503107
4894.000000	43.562306
4892.000000	43.622649
4890.000000	43.684125
4888.000000	43.744295
4886.000000	43.803464
4884.000000	43.861603
4882.000000	43.921013
4880.000000	43.980228
4878.000000	44.040215
4876.000000	44.099679
4874.000000	44.159174
4872.000000	44.218118
4870.000000	44.277800
4868.000000	44.336752
4866.000000	44.395640
4864.000000	44.454288
4862.000000	44.513636
4860.000000	44.571412
4858.000000	44.628459
4856.000000	44.685497
4854.000000	44.744431
4852.000000	44.803037
4850.000000	44.861469
4848.000000	44.918900
4846.000000	44.976558
4844.000000	45.033500
4842.000000	45.091938
4840.000000	45.151067
4838.000000	45.210098
4836.000000	45.266899
4834.000000	45.324837
4832.000000	45.383947
4830.000000	45.443294
4828.000000	45.501173
4826.000000	45.559381
4824.000000	45.616136
4822.000000	45.673508
4820.000000	45.732256
4818.000000	45.791713
4816.000000	45.849876
4814.000000	45.910443
4812.000000	45.971459
4810.000000	46.032430
4808.000000	46.091797
4806.000000	46.151461
4804.000000	46.210817
4802.000000	46.270848
4800.000000	46.329774
4798.000000	46.389458
4796.000000	46.450093
4794.000000	46.511901
4792.000000	46.573299
4790.000000	46.634494
4788.000000	46.694568
4786.000000	46.755224
4784.000000	46.814816
4782.000000	46.875086
4780.000000	46.936077
4778.000000	46.997381
4776.000000	47.056879
4774.000000	47.116251
4772.000000	47.175416
4770.000000	47.235434
4768.000000	47.295983
4766.000000	47.356254
4764.000000	47.414632
4762.000000	47.473454
4760.000000	47.532690
4758.000000	47.592232
4756.000000	47.650588
4754.000000	47.709167
4752.000000	47.767517
4750.000000	47.827480
4748.000000	47.887017
4746.000000	47.944418
4744.000000	48.000601
4742.000000	48.059676
4740.000000	48.119527
4738.000000	48.178485
4736.000000	48.236156
4734.000000	48.294359
4732.000000	48.351807
4730.000000	48.410088
4728.000000	48.469301
4726.000000	48.530613
4724.000000	48.591320
4722.000000	48.651843
4720.000000	48.711877
4718.000000	48.772408
4716.000000	48.832966
4714.000000	48.895460
4712.000000	48.957663
4710.000000	49.019109
4708.000000	49.080301
4706.000000	49.143468
4704.000000	49.207145
4702.000000	49.271851
4700.000000	49.335972
4698.000000	49.399494
4696.000000	49.460794
4694.000000	49.522278
4692.000000	49.583716
4690.000000	49.645651
4688.000000	49.706738
4686.000000	49.768797
4684.000000	49.830280
4682.000000	49.892274
4680.000000	49.955229
4678.000000	50.018838
4676.000000	50.079368
4674.000000	50.138720
4672.000000	50.199346
4670.000000	50.262106
4668.000000	50.324173
4666.000000	50.385595
4664.000000	50.446058
4662.000000	50.507389
4660.000000	50.569280
4658.000000	50.632057
4656.000000	50.693403
4654.000000	50.753714
4652.000000	50.813083
4650.000000	50.873870
4648.000000	50.934826
4646.000000	50.996724
4644.000000	51.058361
4642.000000	51.120400
4640.000000	51.181477
4638.000000	51.243001
4636.000000	51.304580
4634.000000	51.367145
4632.000000	51.428352
4630.000000	51.488847
4628.000000	51.549255
4626.000000	51.610637
4624.000000	51.671696
4622.000000	51.734295
4620.000000	51.797261
4618.000000	51.859999
4616.000000	51.922248
4614.000000	51.987007
4612.000000	52.051996
4610.000000	52.116952
4608.000000	52.181665
4606.000000	52.247584
4604.000000	52.312562
4602.000000	52.378262
4600.000000	52.443903
4598.000000	52.509487
4596.000000	52.574056
4594.000000	52.638714
4592.000000	52.702174
4590.000000	52.766734
4588.000000	52.831804
4586.000000	52.896945
4584.000000	52.960583
4582.000000	53.024448
4580.000000	53.088340
4578.000000	53.153254
4576.000000	53.217692
4574.000000	53.282834
4572.000000	53.346934
4570.000000	53.410413
4568.000000	53.474070
4566.000000	53.539143
4564.000000	53.602487
4562.000000	53.665005
4560.000000	53.727959
4558.000000	53.791862
4556.000000	53.854221
4554.000000	53.916693
4552.000000	53.979507
4550.000000	54.043382
4548.000000	54.106840
4546.000000	54.169888
4544.000000	54.231355
4542.000000	54.294007
4540.000000	54.356570
4538.000000	54.420071
4536.000000	54.483235
4534.000000	54.546167
4532.000000	54.607759
4530.000000	54.671241
4528.000000	54.735800
4526.000000	54.801412
4524.000000	54.865077
4522.000000	54.928330
4520.000000	54.992266
4518.000000	55.057485
4516.000000	55.122029
4514.000000	55.187530
4512.000000	55.251953
4510.000000	55.316613
4508.000000	55.382813
4506.000000	55.450401
4504.000000	55.516143
4502.000000	55.581510
4500.000000	55.646738
4498.000000	55.712764
4496.000000	55.777776
4494.000000	55.843033
4492.000000	55.908413
4490.000000	55.974808
4488.000000	56.040755
4486.000000	56.106580
4484.000000	56.170933
4482.000000	56.236188
4480.000000	56.301670
4478.000000	56.366775
4476.000000	56.429775
4474.000000	56.492491
4472.000000	56.555049
4470.000000	56.618700
4468.000000	56.681373
4466.000000	56.743832
4464.000000	56.806761
4462.000000	56.871002
4460.000000	56.933032
4458.000000	56.994443
4456.000000	57.056044
4454.000000	57.118780
4452.000000	57.180758
4450.000000	57.243311
4448.000000	57.305308
4446.000000	57.368043
4444.000000	57.430643
4442.000000	57.493888
4440.000000	57.555822
4438.000000	57.618372
4436.000000	57.681551
4434.000000	57.745225
4432.000000	57.807758
4430.000000	57.871348
4428.000000	57.935295
4426.000000	57.999522
4424.000000	58.062420
4422.000000	58.126052
4420.000000	58.190508
4418.000000	58.255348
4416.000000	58.319058
4414.000000	58.383223
4412.000000	58.447817
4410.000000	58.514022
4408.000000	58.579119
4406.000000	58.642901
4404.000000	58.707272
4402.000000	58.773407
4400.000000	58.837913
4398.000000	58.901348
4396.000000	58.964573
4394.000000	59.028811
4392.000000	59.092418
4390.000000	59.156014
4388.000000	59.218642
4386.000000	59.280746
4384.000000	59.341438
4382.000000	59.402770
4380.000000	59.463624
4378.000000	59.524208
4376.000000	59.584419
4374.000000	59.645384
4372.000000	59.704754
4370.000000	59.764094
4368.000000	59.824116
4366.000000	59.885287
4364.000000	59.945491
4362.000000	60.006029
4360.000000	60.067495
4358.000000	60.130072
4356.000000	60.192113
4354.000000	60.256237
4352.000000	60.320951
4350.000000	60.384995
4348.000000	60.447929
4346.000000	60.511470
4344.000000	60.574125
4342.000000	60.637322
4340.000000	60.700257
4338.000000	60.764403
4336.000000	60.828932
4334.000000	60.893284
4332.000000	60.956685
4330.000000	61.021607
4328.000000	61.086679
4326.000000	61.152334
4324.000000	61.218047
4322.000000	61.284910
4320.000000	61.352061
4318.000000	61.419901
4316.000000	61.486810
4314.000000	61.554375
4312.000000	61.622440
4310.000000	61.690810
4308.000000	61.757489
4306.000000	61.824201
4304.000000	61.890361
4302.000000	61.956628
4300.000000	62.022464
4298.000000	62.088028
4296.000000	62.152754
4294.000000	62.218741
4292.000000	62.284536
