PE IR       SUBTECH     SPECTRUM    ASCII       PEDS        4.00        
   -1
TE110A_046_115K_SB.ASC
20/05/14
13:19:58.00
20/05/14
13:19:58.00
Administrator
TE110A.Thursday, May 14 2020, 015.
1000.000000
#HDR
-1
-1
#GR
cm-1
EGY
1.0
0.0
6000.000000
-2.000000
2501
8
5.972878
0.610105
#DATA
6000.000000	0.919749
5998.000000	0.920628
5996.000000	0.922933
5994.000000	0.925963
5992.000000	0.927720
5990.000000	0.929081
5988.000000	0.930984
5986.000000	0.932705
5984.000000	0.933772
5982.000000	0.935157
5980.000000	0.937063
5978.000000	0.939218
5976.000000	0.940937
5974.000000	0.943781
5972.000000	0.947024
5970.000000	0.948633
5968.000000	0.948749
5966.000000	0.949743
5964.000000	0.953208
5962.000000	0.956114
5960.000000	0.957250
5958.000000	0.957585
5956.000000	0.959019
5954.000000	0.961924
5952.000000	0.965175
5950.000000	0.967979
5948.000000	0.969356
5946.000000	0.970439
5944.000000	0.972387
5942.000000	0.975238
5940.000000	0.977501
5938.000000	0.978721
5936.000000	0.980174
5934.000000	0.983011
5932.000000	0.985467
5930.000000	0.987419
5928.000000	0.989719
5926.000000	0.991467
5924.000000	0.992805
5922.000000	0.993703
5920.000000	0.995631
5918.000000	0.998707
5916.000000	1.001579
5914.000000	1.003487
5912.000000	1.004846
5910.000000	1.006746
5908.000000	1.009535
5906.000000	1.012431
5904.000000	1.014326
5902.000000	1.015552
5900.000000	1.017639
5898.000000	1.020339
5896.000000	1.022429
5894.000000	1.024592
5892.000000	1.027480
5890.000000	1.030664
5888.000000	1.032666
5886.000000	1.033241
5884.000000	1.034288
5882.000000	1.036629
5880.000000	1.039107
5878.000000	1.041479
5876.000000	1.043117
5874.000000	1.045232
5872.000000	1.047845
5870.000000	1.049875
5868.000000	1.050684
5866.000000	1.051845
5864.000000	1.054534
5862.000000	1.058121
5860.000000	1.061184
5858.000000	1.062788
5856.000000	1.064390
5854.000000	1.066695
5852.000000	1.069007
5850.000000	1.071551
5848.000000	1.073209
5846.000000	1.075173
5844.000000	1.077357
5842.000000	1.079177
5840.000000	1.081533
5838.000000	1.084114
5836.000000	1.086751
5834.000000	1.089460
5832.000000	1.092230
5830.000000	1.095255
5828.000000	1.098180
5826.000000	1.100477
5824.000000	1.102313
5822.000000	1.103837
5820.000000	1.106479
5818.000000	1.109173
5816.000000	1.112049
5814.000000	1.113958
5812.000000	1.115882
5810.000000	1.117889
5808.000000	1.119778
5806.000000	1.121559
5804.000000	1.124042
5802.000000	1.126632
5800.000000	1.129399
5798.000000	1.132059
5796.000000	1.134062
5794.000000	1.135956
5792.000000	1.138064
5790.000000	1.141224
5788.000000	1.143594
5786.000000	1.144986
5784.000000	1.146509
5782.000000	1.149709
5780.000000	1.153221
5778.000000	1.155411
5776.000000	1.156792
5774.000000	1.158540
5772.000000	1.160715
5770.000000	1.162629
5768.000000	1.165442
5766.000000	1.169357
5764.000000	1.173386
5762.000000	1.176399
5760.000000	1.177503
5758.000000	1.179060
5756.000000	1.181389
5754.000000	1.184745
5752.000000	1.187432
5750.000000	1.189171
5748.000000	1.191225
5746.000000	1.193236
5744.000000	1.195963
5742.000000	1.198849
5740.000000	1.201209
5738.000000	1.203218
5736.000000	1.204729
5734.000000	1.206652
5732.000000	1.209216
5730.000000	1.211286
5728.000000	1.213999
5726.000000	1.217128
5724.000000	1.220356
5722.000000	1.223243
5720.000000	1.225367
5718.000000	1.227325
5716.000000	1.229410
5714.000000	1.232491
5712.000000	1.235963
5710.000000	1.238802
5708.000000	1.240414
5706.000000	1.242099
5704.000000	1.244495
5702.000000	1.247378
5700.000000	1.249746
5698.000000	1.252331
5696.000000	1.254504
5694.000000	1.256421
5692.000000	1.258384
5690.000000	1.260448
5688.000000	1.263788
5686.000000	1.267391
5684.000000	1.270312
5682.000000	1.272605
5680.000000	1.274614
5678.000000	1.276679
5676.000000	1.279668
5674.000000	1.282613
5672.000000	1.285985
5670.000000	1.289224
5668.000000	1.292116
5666.000000	1.294531
5664.000000	1.296434
5662.000000	1.298915
5660.000000	1.302092
5658.000000	1.304643
5656.000000	1.307496
5654.000000	1.310998
5652.000000	1.314388
5650.000000	1.316621
5648.000000	1.317579
5646.000000	1.319743
5644.000000	1.323007
5642.000000	1.326011
5640.000000	1.328618
5638.000000	1.330607
5636.000000	1.333162
5634.000000	1.335752
5632.000000	1.337949
5630.000000	1.340989
5628.000000	1.343724
5626.000000	1.345281
5624.000000	1.347474
5622.000000	1.350925
5620.000000	1.355020
5618.000000	1.356778
5616.000000	1.357368
5614.000000	1.359627
5612.000000	1.362808
5610.000000	1.366167
5608.000000	1.369319
5606.000000	1.372098
5604.000000	1.375036
5602.000000	1.377358
5600.000000	1.379716
5598.000000	1.382652
5596.000000	1.385108
5594.000000	1.388522
5592.000000	1.391518
5590.000000	1.394094
5588.000000	1.396398
5586.000000	1.399436
5584.000000	1.402638
5582.000000	1.405294
5580.000000	1.408099
5578.000000	1.411126
5576.000000	1.413786
5574.000000	1.415667
5572.000000	1.418458
5570.000000	1.421888
5568.000000	1.424696
5566.000000	1.427366
5564.000000	1.430439
5562.000000	1.433465
5560.000000	1.435489
5558.000000	1.437276
5556.000000	1.439766
5554.000000	1.442928
5552.000000	1.446145
5550.000000	1.449095
5548.000000	1.451660
5546.000000	1.453876
5544.000000	1.456325
5542.000000	1.459214
5540.000000	1.461983
5538.000000	1.464466
5536.000000	1.467162
5534.000000	1.470470
5532.000000	1.474215
5530.000000	1.478313
5528.000000	1.481472
5526.000000	1.483877
5524.000000	1.485547
5522.000000	1.487519
5520.000000	1.489563
5518.000000	1.492149
5516.000000	1.494721
5514.000000	1.496917
5512.000000	1.500322
5510.000000	1.503564
5508.000000	1.506393
5506.000000	1.507810
5504.000000	1.510573
5502.000000	1.514478
5500.000000	1.517770
5498.000000	1.520836
5496.000000	1.523957
5494.000000	1.526349
5492.000000	1.528083
5490.000000	1.530612
5488.000000	1.533985
5486.000000	1.536732
5484.000000	1.539366
5482.000000	1.542827
5480.000000	1.545638
5478.000000	1.547954
5476.000000	1.549733
5474.000000	1.552462
5472.000000	1.555558
5470.000000	1.559288
5468.000000	1.563470
5466.000000	1.566120
5464.000000	1.568029
5462.000000	1.569722
5460.000000	1.572370
5458.000000	1.576120
5456.000000	1.579853
5454.000000	1.583689
5452.000000	1.586912
5450.000000	1.589251
5448.000000	1.590602
5446.000000	1.591991
5444.000000	1.594390
5442.000000	1.596957
5440.000000	1.599791
5438.000000	1.602670
5436.000000	1.606637
5434.000000	1.610626
5432.000000	1.614158
5430.000000	1.615688
5428.000000	1.616844
5426.000000	1.618415
5424.000000	1.621151
5422.000000	1.625891
5420.000000	1.631615
5418.000000	1.635665
5416.000000	1.636936
5414.000000	1.637537
5412.000000	1.639761
5410.000000	1.642158
5408.000000	1.645202
5406.000000	1.649241
5404.000000	1.654182
5402.000000	1.658257
5400.000000	1.661259
5398.000000	1.663598
5396.000000	1.665311
5394.000000	1.667120
5392.000000	1.669844
5390.000000	1.673575
5388.000000	1.677413
5386.000000	1.680836
5384.000000	1.684195
5382.000000	1.686210
5380.000000	1.688121
5378.000000	1.690420
5376.000000	1.693442
5374.000000	1.696486
5372.000000	1.700593
5370.000000	1.705725
5368.000000	1.709394
5366.000000	1.711716
5364.000000	1.713953
5362.000000	1.716780
5360.000000	1.719415
5358.000000	1.721939
5356.000000	1.724459
5354.000000	1.726534
5352.000000	1.728281
5350.000000	1.731125
5348.000000	1.734218
5346.000000	1.736771
5344.000000	1.739289
5342.000000	1.742718
5340.000000	1.746763
5338.000000	1.749384
5336.000000	1.751633
5334.000000	1.755572
5332.000000	1.760107
5330.000000	1.763022
5328.000000	1.763673
5326.000000	1.765154
5324.000000	1.768866
5322.000000	1.772846
5320.000000	1.776203
5318.000000	1.779112
5316.000000	1.782732
5314.000000	1.786712
5312.000000	1.789696
5310.000000	1.791343
5308.000000	1.793228
5306.000000	1.796287
5304.000000	1.800230
5302.000000	1.803207
5300.000000	1.805916
5298.000000	1.808929
5296.000000	1.812370
5294.000000	1.815721
5292.000000	1.818000
5290.000000	1.819632
5288.000000	1.821955
5286.000000	1.825769
5284.000000	1.829797
5282.000000	1.833341
5280.000000	1.836927
5278.000000	1.840423
5276.000000	1.844270
5274.000000	1.848220
5272.000000	1.851356
5270.000000	1.852768
5268.000000	1.853731
5266.000000	1.855594
5264.000000	1.857654
5262.000000	1.860001
5260.000000	1.863697
5258.000000	1.868438
5256.000000	1.872615
5254.000000	1.875470
5252.000000	1.877565
5250.000000	1.879396
5248.000000	1.881024
5246.000000	1.883631
5244.000000	1.887564
5242.000000	1.891770
5240.000000	1.894845
5238.000000	1.897568
5236.000000	1.901709
5234.000000	1.906378
5232.000000	1.909376
5230.000000	1.911147
5228.000000	1.913551
5226.000000	1.917120
5224.000000	1.919832
5222.000000	1.922174
5220.000000	1.924631
5218.000000	1.928480
5216.000000	1.933363
5214.000000	1.937364
5212.000000	1.939534
5210.000000	1.941444
5208.000000	1.944517
5206.000000	1.946880
5204.000000	1.948866
5202.000000	1.952789
5200.000000	1.958475
5198.000000	1.962482
5196.000000	1.964116
5194.000000	1.966015
5192.000000	1.969819
5190.000000	1.973852
5188.000000	1.976883
5186.000000	1.979198
5184.000000	1.982294
5182.000000	1.986446
5180.000000	1.990616
5178.000000	1.993524
5176.000000	1.995798
5174.000000	1.999186
5172.000000	2.003561
5170.000000	2.006869
5168.000000	2.008615
5166.000000	2.010484
5164.000000	2.014179
5162.000000	2.018134
5160.000000	2.020818
5158.000000	2.022745
5156.000000	2.025924
5154.000000	2.029984
5152.000000	2.033438
5150.000000	2.035788
5148.000000	2.038217
5146.000000	2.042067
5144.000000	2.046342
5142.000000	2.049515
5140.000000	2.052325
5138.000000	2.055630
5136.000000	2.058933
5134.000000	2.061510
5132.000000	2.064406
5130.000000	2.066976
5128.000000	2.068834
5126.000000	2.071288
5124.000000	2.075464
5122.000000	2.080168
5120.000000	2.083269
5118.000000	2.085217
5116.000000	2.087790
5114.000000	2.091652
5112.000000	2.095769
5110.000000	2.099146
5108.000000	2.101573
5106.000000	2.103879
5104.000000	2.106715
5102.000000	2.110421
5100.000000	2.114691
5098.000000	2.118583
5096.000000	2.121052
5094.000000	2.122903
5092.000000	2.125752
5090.000000	2.129294
5088.000000	2.132672
5086.000000	2.136458
5084.000000	2.140205
5082.000000	2.142939
5080.000000	2.144677
5078.000000	2.147557
5076.000000	2.151724
5074.000000	2.155757
5072.000000	2.159243
5070.000000	2.161940
5068.000000	2.164928
5066.000000	2.167787
5064.000000	2.171450
5062.000000	2.174634
5060.000000	2.177537
5058.000000	2.181126
5056.000000	2.184867
5054.000000	2.187799
5052.000000	2.190650
5050.000000	2.194428
5048.000000	2.197467
5046.000000	2.199231
5044.000000	2.201423
5042.000000	2.204739
5040.000000	2.208621
5038.000000	2.212329
5036.000000	2.215078
5034.000000	2.216818
5032.000000	2.219812
5030.000000	2.224668
5028.000000	2.229607
5026.000000	2.232808
5024.000000	2.235074
5022.000000	2.237862
5020.000000	2.241597
5018.000000	2.245559
5016.000000	2.249150
5014.000000	2.252187
5012.000000	2.255298
5010.000000	2.258137
5008.000000	2.261151
5006.000000	2.264946
5004.000000	2.268857
5002.000000	2.272390
5000.000000	2.275587
4998.000000	2.278686
4996.000000	2.281662
4994.000000	2.284648
4992.000000	2.287015
4990.000000	2.289136
4988.000000	2.292382
4986.000000	2.295934
4984.000000	2.298962
4982.000000	2.302178
4980.000000	2.306530
4978.000000	2.310410
4976.000000	2.313605
4974.000000	2.316048
4972.000000	2.318853
4970.000000	2.321606
4968.000000	2.325093
4966.000000	2.328914
4964.000000	2.333045
4962.000000	2.336672
4960.000000	2.339787
4958.000000	2.342567
4956.000000	2.345653
4954.000000	2.348770
4952.000000	2.351581
4950.000000	2.354621
4948.000000	2.357977
4946.000000	2.360707
4944.000000	2.363298
4942.000000	2.366989
4940.000000	2.371559
4938.000000	2.376200
4936.000000	2.380512
4934.000000	2.384147
4932.000000	2.387256
4930.000000	2.389852
4928.000000	2.391832
4926.000000	2.393548
4924.000000	2.396322
4922.000000	2.400178
4920.000000	2.403956
4918.000000	2.407275
4916.000000	2.410679
4914.000000	2.414644
4912.000000	2.418161
4910.000000	2.421051
4908.000000	2.424373
4906.000000	2.428009
4904.000000	2.431212
4902.000000	2.433954
4900.000000	2.437275
4898.000000	2.440719
4896.000000	2.444206
4894.000000	2.447173
4892.000000	2.449929
4890.000000	2.453127
4888.000000	2.457506
4886.000000	2.461861
4884.000000	2.465206
4882.000000	2.467878
4880.000000	2.471580
4878.000000	2.476263
4876.000000	2.480752
4874.000000	2.482649
4872.000000	2.483317
4870.000000	2.485864
4868.000000	2.490091
4866.000000	2.493623
4864.000000	2.497048
4862.000000	2.501418
4860.000000	2.504711
4858.000000	2.506473
4856.000000	2.508784
4854.000000	2.512643
4852.000000	2.516830
4850.000000	2.520435
4848.000000	2.523855
4846.000000	2.527372
4844.000000	2.530628
4842.000000	2.534204
4840.000000	2.537827
4838.000000	2.540587
4836.000000	2.542818
4834.000000	2.545944
4832.000000	2.549906
4830.000000	2.553664
4828.000000	2.556856
4826.000000	2.559834
4824.000000	2.563180
4822.000000	2.567109
4820.000000	2.570898
4818.000000	2.574044
4816.000000	2.576980
4814.000000	2.580231
4812.000000	2.583667
4810.000000	2.587483
4808.000000	2.591392
4806.000000	2.594309
4804.000000	2.596664
4802.000000	2.600095
4800.000000	2.604764
4798.000000	2.609037
4796.000000	2.611950
4794.000000	2.614335
4792.000000	2.618003
4790.000000	2.622304
4788.000000	2.625447
4786.000000	2.627880
4784.000000	2.631447
4782.000000	2.635967
4780.000000	2.640075
4778.000000	2.643396
4776.000000	2.646582
4774.000000	2.649605
4772.000000	2.651730
4770.000000	2.653462
4768.000000	2.656676
4766.000000	2.661843
4764.000000	2.666811
4762.000000	2.669902
4760.000000	2.671822
4758.000000	2.674444
4756.000000	2.678097
4754.000000	2.682339
4752.000000	2.686303
4750.000000	2.690015
4748.000000	2.693305
4746.000000	2.696229
4744.000000	2.699197
4742.000000	2.703039
4740.000000	2.706751
4738.000000	2.709996
4736.000000	2.712759
4734.000000	2.715912
4732.000000	2.719797
4730.000000	2.723597
4728.000000	2.726803
4726.000000	2.729912
4724.000000	2.733834
4722.000000	2.738923
4720.000000	2.743240
4718.000000	2.745697
4716.000000	2.748118
4714.000000	2.751519
4712.000000	2.754030
4710.000000	2.756110
4708.000000	2.759641
4706.000000	2.764201
4704.000000	2.768222
4702.000000	2.771690
4700.000000	2.775344
4698.000000	2.779142
4696.000000	2.782890
4694.000000	2.787419
4692.000000	2.791855
4690.000000	2.794684
4688.000000	2.796791
4686.000000	2.800100
4684.000000	2.804109
4682.000000	2.807523
4680.000000	2.810855
4678.000000	2.814073
4676.000000	2.816798
4674.000000	2.819934
4672.000000	2.824081
4670.000000	2.828019
4668.000000	2.831225
4666.000000	2.834196
4664.000000	2.836733
4662.000000	2.839394
4660.000000	2.843090
4658.000000	2.847823
4656.000000	2.851629
4654.000000	2.854944
4652.000000	2.858546
4650.000000	2.862410
4648.000000	2.865960
4646.000000	2.870041
4644.000000	2.874570
4642.000000	2.878488
4640.000000	2.881564
4638.000000	2.884422
4636.000000	2.888002
4634.000000	2.892129
4632.000000	2.895813
4630.000000	2.898402
4628.000000	2.900647
4626.000000	2.903567
4624.000000	2.907242
4622.000000	2.911194
4620.000000	2.915370
4618.000000	2.920010
4616.000000	2.924052
4614.000000	2.927006
4612.000000	2.930173
4610.000000	2.934463
4608.000000	2.938681
4606.000000	2.942656
4604.000000	2.946707
4602.000000	2.950408
4600.000000	2.953059
4598.000000	2.955806
4596.000000	2.959611
4594.000000	2.963314
4592.000000	2.966875
4590.000000	2.971429
4588.000000	2.975828
4586.000000	2.978923
4584.000000	2.982200
4582.000000	2.986370
4580.000000	2.989837
4578.000000	2.992552
4576.000000	2.995605
4574.000000	2.999039
4572.000000	3.002198
4570.000000	3.005470
4568.000000	3.009245
4566.000000	3.012306
4564.000000	3.015045
4562.000000	3.019082
4560.000000	3.024230
4558.000000	3.028122
4556.000000	3.031918
4554.000000	3.035834
4552.000000	3.038813
4550.000000	3.041374
4548.000000	3.045345
4546.000000	3.050037
4544.000000	3.054051
4542.000000	3.057119
4540.000000	3.060850
4538.000000	3.064729
4536.000000	3.067597
4534.000000	3.071053
4532.000000	3.075928
4530.000000	3.080658
4528.000000	3.084918
4526.000000	3.088534
4524.000000	3.090589
4522.000000	3.092774
4520.000000	3.096643
4518.000000	3.101018
4516.000000	3.105644
4514.000000	3.110229
4512.000000	3.113886
4510.000000	3.116865
4508.000000	3.120320
4506.000000	3.123753
4504.000000	3.127462
4502.000000	3.130835
4500.000000	3.133446
4498.000000	3.136274
4496.000000	3.140304
4494.000000	3.145264
4492.000000	3.150514
4490.000000	3.154322
4488.000000	3.156671
4486.000000	3.158923
4484.000000	3.161607
4482.000000	3.165651
4480.000000	3.170896
4478.000000	3.175373
4476.000000	3.178812
4474.000000	3.182282
4472.000000	3.185700
4470.000000	3.188992
4468.000000	3.193021
4466.000000	3.197136
4464.000000	3.200072
4462.000000	3.202806
4460.000000	3.205944
4458.000000	3.208747
4456.000000	3.212282
4454.000000	3.216706
4452.000000	3.220627
4450.000000	3.224361
4448.000000	3.228494
4446.000000	3.232671
4444.000000	3.236499
4442.000000	3.239842
4440.000000	3.242491
4438.000000	3.245405
4436.000000	3.249211
4434.000000	3.253776
4432.000000	3.258560
4430.000000	3.262307
4428.000000	3.264641
4426.000000	3.267409
4424.000000	3.271014
4422.000000	3.274782
4420.000000	3.278190
4418.000000	3.281402
4416.000000	3.285444
4414.000000	3.289875
4412.000000	3.293420
4410.000000	3.297314
4408.000000	3.302183
4406.000000	3.306820
4404.000000	3.310249
4402.000000	3.312728
4400.000000	3.316202
4398.000000	3.321191
4396.000000	3.325410
4394.000000	3.328881
4392.000000	3.332396
4390.000000	3.334821
4388.000000	3.337207
4386.000000	3.341167
4384.000000	3.345189
4382.000000	3.349004
4380.000000	3.353070
4378.000000	3.356049
4376.000000	3.358520
4374.000000	3.361728
4372.000000	3.364955
4370.000000	3.367864
4368.000000	3.371780
4366.000000	3.376538
4364.000000	3.380538
4362.000000	3.383405
4360.000000	3.385945
4358.000000	3.389097
4356.000000	3.393201
4354.000000	3.397258
4352.000000	3.400651
4350.000000	3.404409
4348.000000	3.408440
4346.000000	3.411673
4344.000000	3.414376
4342.000000	3.418497
4340.000000	3.423659
4338.000000	3.428396
4336.000000	3.432117
4334.000000	3.434735
4332.000000	3.438078
4330.000000	3.443199
4328.000000	3.447956
4326.000000	3.451571
4324.000000	3.455449
4322.000000	3.460221
4320.000000	3.463841
4318.000000	3.466705
4316.000000	3.470981
4314.000000	3.474795
4312.000000	3.476762
4310.000000	3.480039
4308.000000	3.484639
4306.000000	3.489430
4304.000000	3.494818
4302.000000	3.499117
4300.000000	3.501616
4298.000000	3.504934
4296.000000	3.509120
4294.000000	3.512508
4292.000000	3.515332
4290.000000	3.518865
4288.000000	3.523259
4286.000000	3.527645
4284.000000	3.531125
4282.000000	3.534001
4280.000000	3.537720
4278.000000	3.541850
4276.000000	3.544517
4274.000000	3.547215
4272.000000	3.551103
4270.000000	3.554365
4268.000000	3.557352
4266.000000	3.560930
4264.000000	3.564356
4262.000000	3.568309
4260.000000	3.572667
4258.000000	3.576248
4256.000000	3.579943
4254.000000	3.583823
4252.000000	3.586784
4250.000000	3.590343
4248.000000	3.595162
4246.000000	3.599092
4244.000000	3.602159
4242.000000	3.606340
4240.000000	3.611364
4238.000000	3.616030
4236.000000	3.619791
4234.000000	3.623492
4232.000000	3.627455
4230.000000	3.630470
4228.000000	3.633641
4226.000000	3.637780
4224.000000	3.641639
4222.000000	3.645200
4220.000000	3.648706
4218.000000	3.652522
4216.000000	3.656968
4214.000000	3.661189
