PE IR       SUBTECH     SPECTRUM    ASCII       PEDS        4.00        
   -1
TE110A_016_90K_BG.ASC
20/05/14
12:05:30.00
20/05/14
12:05:30.00
Administrator
TE110A.Thursday, May 14 2020, 004.
1000.000000
#HDR
-1
-1
#GR
cm-1
EGY
1.0
0.0
6000.000000
-2.000000
2501
8
105.620429
11.023981
#DATA
6000.000000	16.751715
5998.000000	16.785466
5996.000000	16.818510
5994.000000	16.849882
5992.000000	16.881185
5990.000000	16.913812
5988.000000	16.947151
5986.000000	16.980915
5984.000000	17.014390
5982.000000	17.048803
5980.000000	17.082984
5978.000000	17.116851
5976.000000	17.150192
5974.000000	17.183938
5972.000000	17.217990
5970.000000	17.251925
5968.000000	17.284722
5966.000000	17.318526
5964.000000	17.352605
5962.000000	17.387141
5960.000000	17.421965
5958.000000	17.457110
5956.000000	17.491792
5954.000000	17.526008
5952.000000	17.560106
5950.000000	17.594916
5948.000000	17.629831
5946.000000	17.664201
5944.000000	17.698455
5942.000000	17.732717
5940.000000	17.766462
5938.000000	17.800427
5936.000000	17.833713
5934.000000	17.866921
5932.000000	17.900688
5930.000000	17.935937
5928.000000	17.970737
5926.000000	18.005904
5924.000000	18.040836
5922.000000	18.076307
5920.000000	18.112358
5918.000000	18.148674
5916.000000	18.185569
5914.000000	18.221955
5912.000000	18.257612
5910.000000	18.294266
5908.000000	18.331276
5906.000000	18.367551
5904.000000	18.403245
5902.000000	18.440491
5900.000000	18.477905
5898.000000	18.515152
5896.000000	18.551282
5894.000000	18.587423
5892.000000	18.624460
5890.000000	18.660816
5888.000000	18.697021
5886.000000	18.733008
5884.000000	18.768991
5882.000000	18.805268
5880.000000	18.842297
5878.000000	18.878672
5876.000000	18.914784
5874.000000	18.950534
5872.000000	18.986501
5870.000000	19.023472
5868.000000	19.060559
5866.000000	19.098648
5864.000000	19.136556
5862.000000	19.173729
5860.000000	19.210421
5858.000000	19.249169
5856.000000	19.288461
5854.000000	19.327744
5852.000000	19.366307
5850.000000	19.405676
5848.000000	19.445920
5846.000000	19.484892
5844.000000	19.524162
5842.000000	19.564941
5840.000000	19.606759
5838.000000	19.648193
5836.000000	19.688564
5834.000000	19.730269
5832.000000	19.772733
5830.000000	19.815916
5828.000000	19.858522
5826.000000	19.900018
5824.000000	19.941650
5822.000000	19.982831
5820.000000	20.023680
5818.000000	20.063905
5816.000000	20.103301
5814.000000	20.143752
5812.000000	20.184319
5810.000000	20.225368
5808.000000	20.266635
5806.000000	20.308146
5804.000000	20.349207
5802.000000	20.390432
5800.000000	20.430950
5798.000000	20.471292
5796.000000	20.511621
5794.000000	20.552502
5792.000000	20.593870
5790.000000	20.635905
5788.000000	20.677583
5786.000000	20.719576
5784.000000	20.762117
5782.000000	20.804868
5780.000000	20.846515
5778.000000	20.887475
5776.000000	20.928942
5774.000000	20.972585
5772.000000	21.015686
5770.000000	21.057130
5768.000000	21.097644
5766.000000	21.139112
5764.000000	21.181545
5762.000000	21.224699
5760.000000	21.267171
5758.000000	21.309442
5756.000000	21.350915
5754.000000	21.392957
5752.000000	21.435322
5750.000000	21.477883
5748.000000	21.520091
5746.000000	21.561268
5744.000000	21.601250
5742.000000	21.641633
5740.000000	21.682482
5738.000000	21.724054
5736.000000	21.765463
5734.000000	21.806862
5732.000000	21.847615
5730.000000	21.888128
5728.000000	21.929019
5726.000000	21.970742
5724.000000	22.012478
5722.000000	22.053665
5720.000000	22.094722
5718.000000	22.137093
5716.000000	22.181467
5714.000000	22.227169
5712.000000	22.271605
5710.000000	22.314791
5708.000000	22.358405
5706.000000	22.403068
5704.000000	22.447629
5702.000000	22.490729
5700.000000	22.534101
5698.000000	22.578735
5696.000000	22.624260
5694.000000	22.670443
5692.000000	22.715922
5690.000000	22.762063
5688.000000	22.808205
5686.000000	22.853483
5684.000000	22.898143
5682.000000	22.942981
5680.000000	22.988832
5678.000000	23.034546
5676.000000	23.080449
5674.000000	23.126816
5672.000000	23.173170
5670.000000	23.218356
5668.000000	23.263348
5666.000000	23.309687
5664.000000	23.356515
5662.000000	23.402697
5660.000000	23.447856
5658.000000	23.493535
5656.000000	23.539834
5654.000000	23.586625
5652.000000	23.632358
5650.000000	23.677323
5648.000000	23.722831
5646.000000	23.768752
5644.000000	23.813383
5642.000000	23.858077
5640.000000	23.903946
5638.000000	23.950741
5636.000000	23.996690
5634.000000	24.041808
5632.000000	24.086858
5630.000000	24.132510
5628.000000	24.178211
5626.000000	24.224860
5624.000000	24.270322
5622.000000	24.315972
5620.000000	24.361981
5618.000000	24.408263
5616.000000	24.453539
5614.000000	24.499147
5612.000000	24.545791
5610.000000	24.592373
5608.000000	24.637527
5606.000000	24.681632
5604.000000	24.726696
5602.000000	24.772921
5600.000000	24.820494
5598.000000	24.867709
5596.000000	24.914007
5594.000000	24.960260
5592.000000	25.006482
5590.000000	25.053604
5588.000000	25.100750
5586.000000	25.147749
5584.000000	25.194335
5582.000000	25.241467
5580.000000	25.289463
5578.000000	25.337411
5576.000000	25.384964
5574.000000	25.433063
5572.000000	25.481019
5570.000000	25.529069
5568.000000	25.576991
5566.000000	25.626087
5564.000000	25.675036
5562.000000	25.722646
5560.000000	25.769440
5558.000000	25.816407
5556.000000	25.863178
5554.000000	25.909228
5552.000000	25.955632
5550.000000	26.004139
5548.000000	26.054058
5546.000000	26.104077
5544.000000	26.153312
5542.000000	26.200051
5540.000000	26.245103
5538.000000	26.291307
5536.000000	26.339959
5534.000000	26.389421
5532.000000	26.437930
5530.000000	26.486272
5528.000000	26.534777
5526.000000	26.581997
5524.000000	26.627564
5522.000000	26.672768
5520.000000	26.718871
5518.000000	26.766722
5516.000000	26.815812
5514.000000	26.865560
5512.000000	26.912944
5510.000000	26.956827
5508.000000	27.000559
5506.000000	27.049100
5504.000000	27.101135
5502.000000	27.152238
5500.000000	27.200744
5498.000000	27.245241
5496.000000	27.284442
5494.000000	27.324162
5492.000000	27.369981
5490.000000	27.423906
5488.000000	27.481439
5486.000000	27.539052
5484.000000	27.595016
5482.000000	27.646366
5480.000000	27.688205
5478.000000	27.722408
5476.000000	27.762190
5474.000000	27.815922
5472.000000	27.875693
5470.000000	27.929047
5468.000000	27.976669
5466.000000	28.022815
5464.000000	28.066239
5462.000000	28.111366
5460.000000	28.163518
5458.000000	28.222404
5456.000000	28.280666
5454.000000	28.331683
5452.000000	28.373867
5450.000000	28.409455
5448.000000	28.445593
5446.000000	28.487975
5444.000000	28.534455
5442.000000	28.590138
5440.000000	28.648316
5438.000000	28.698953
5436.000000	28.743473
5434.000000	28.787062
5432.000000	28.831293
5430.000000	28.877812
5428.000000	28.935305
5426.000000	29.005221
5424.000000	29.072414
5422.000000	29.128955
5420.000000	29.176774
5418.000000	29.209097
5416.000000	29.229599
5414.000000	29.256179
5412.000000	29.303685
5410.000000	29.371565
5408.000000	29.441995
5406.000000	29.506588
5404.000000	29.563943
5402.000000	29.616952
5400.000000	29.663452
5398.000000	29.698044
5396.000000	29.728654
5394.000000	29.774466
5392.000000	29.838856
5390.000000	29.901951
5388.000000	29.948898
5386.000000	29.994504
5384.000000	30.052263
5382.000000	30.111077
5380.000000	30.150706
5378.000000	30.184408
5376.000000	30.233428
5374.000000	30.302305
5372.000000	30.372366
5370.000000	30.432107
5368.000000	30.482542
5366.000000	30.527878
5364.000000	30.576253
5362.000000	30.630626
5360.000000	30.685334
5358.000000	30.726445
5356.000000	30.754393
5354.000000	30.790388
5352.000000	30.843650
5350.000000	30.902389
5348.000000	30.941439
5346.000000	30.975197
5344.000000	31.023457
5342.000000	31.077183
5340.000000	31.124987
5338.000000	31.176485
5336.000000	31.244930
5334.000000	31.316691
5332.000000	31.372971
5330.000000	31.416296
5328.000000	31.463113
5326.000000	31.522894
5324.000000	31.590190
5322.000000	31.650126
5320.000000	31.700601
5318.000000	31.749035
5316.000000	31.799719
5314.000000	31.852520
5312.000000	31.900425
5310.000000	31.941675
5308.000000	31.985653
5306.000000	32.039502
5304.000000	32.098396
5302.000000	32.153756
5300.000000	32.207440
5298.000000	32.262248
5296.000000	32.314699
5294.000000	32.357425
5292.000000	32.396121
5290.000000	32.444305
5288.000000	32.501434
5286.000000	32.560764
5284.000000	32.615806
5282.000000	32.671106
5280.000000	32.727189
5278.000000	32.783935
5276.000000	32.839280
5274.000000	32.890668
5272.000000	32.937489
5270.000000	32.982763
5268.000000	33.020271
5266.000000	33.053253
5264.000000	33.096186
5262.000000	33.159927
5260.000000	33.230629
5258.000000	33.285433
5256.000000	33.330773
5254.000000	33.381803
5252.000000	33.432742
5250.000000	33.474941
5248.000000	33.515509
5246.000000	33.569507
5244.000000	33.638104
5242.000000	33.708533
5240.000000	33.772997
5238.000000	33.827317
5236.000000	33.876536
5234.000000	33.923328
5232.000000	33.971625
5230.000000	34.018244
5228.000000	34.058981
5226.000000	34.103002
5224.000000	34.161150
5222.000000	34.227599
5220.000000	34.287295
5218.000000	34.342028
5216.000000	34.399396
5214.000000	34.455145
5212.000000	34.497384
5210.000000	34.524269
5208.000000	34.555509
5206.000000	34.613129
5204.000000	34.690289
5202.000000	34.762945
5200.000000	34.817849
5198.000000	34.867798
5196.000000	34.923130
5194.000000	34.982806
5192.000000	35.038812
5190.000000	35.090072
5188.000000	35.138022
5186.000000	35.188392
5184.000000	35.244263
5182.000000	35.304731
5180.000000	35.363802
5178.000000	35.420834
5176.000000	35.477458
5174.000000	35.531897
5172.000000	35.584511
5170.000000	35.639148
5168.000000	35.694573
5166.000000	35.747747
5164.000000	35.800799
5162.000000	35.855768
5160.000000	35.909941
5158.000000	35.962764
5156.000000	36.018393
5154.000000	36.076216
5152.000000	36.133324
5150.000000	36.190644
5148.000000	36.247241
5146.000000	36.300809
5144.000000	36.351622
5142.000000	36.404603
5140.000000	36.460575
5138.000000	36.516917
5136.000000	36.570417
5134.000000	36.622874
5132.000000	36.676372
5130.000000	36.731903
5128.000000	36.787310
5126.000000	36.842823
5124.000000	36.897744
5122.000000	36.951101
5120.000000	37.003682
5118.000000	37.059020
5116.000000	37.116078
5114.000000	37.172102
5112.000000	37.226102
5110.000000	37.279746
5108.000000	37.334110
5106.000000	37.390268
5104.000000	37.447159
5102.000000	37.502983
5100.000000	37.557192
5098.000000	37.612150
5096.000000	37.668601
5094.000000	37.726531
5092.000000	37.784414
5090.000000	37.841720
5088.000000	37.897714
5086.000000	37.953433
5084.000000	38.009969
5082.000000	38.068208
5080.000000	38.126037
5078.000000	38.182857
5076.000000	38.238681
5074.000000	38.295075
5072.000000	38.352822
5070.000000	38.410773
5068.000000	38.466879
5066.000000	38.522444
5064.000000	38.578597
5062.000000	38.635807
5060.000000	38.693107
5058.000000	38.751547
5056.000000	38.808449
5054.000000	38.863237
5052.000000	38.917547
5050.000000	38.973645
5048.000000	39.030339
5046.000000	39.086156
5044.000000	39.141578
5042.000000	39.198080
5040.000000	39.254493
5038.000000	39.311089
5036.000000	39.367913
5034.000000	39.425228
5032.000000	39.480692
5030.000000	39.535900
5028.000000	39.592298
5026.000000	39.649457
5024.000000	39.705334
5022.000000	39.760375
5020.000000	39.816015
5018.000000	39.873279
5016.000000	39.931257
5014.000000	39.989064
5012.000000	40.045403
5010.000000	40.101656
5008.000000	40.158390
5006.000000	40.215928
5004.000000	40.273094
5002.000000	40.330546
5000.000000	40.388718
4998.000000	40.447625
4996.000000	40.505359
4994.000000	40.562698
4992.000000	40.620565
4990.000000	40.679828
4988.000000	40.739050
4986.000000	40.798512
4984.000000	40.857177
4982.000000	40.914986
4980.000000	40.971787
4978.000000	41.030465
4976.000000	41.090215
4974.000000	41.149475
4972.000000	41.206183
4970.000000	41.263123
4968.000000	41.321290
4966.000000	41.380203
4964.000000	41.438293
4962.000000	41.496259
4960.000000	41.553797
4958.000000	41.610789
4956.000000	41.667565
4954.000000	41.725380
4952.000000	41.782042
4950.000000	41.838990
4948.000000	41.897029
4946.000000	41.955438
4944.000000	42.011877
4942.000000	42.068119
4940.000000	42.124596
4938.000000	42.180645
4936.000000	42.237015
4934.000000	42.294787
4932.000000	42.353026
4930.000000	42.410084
4928.000000	42.466370
4926.000000	42.523583
4924.000000	42.581489
4922.000000	42.639413
4920.000000	42.696897
4918.000000	42.754642
4916.000000	42.811768
4914.000000	42.869488
4912.000000	42.927699
4910.000000	42.986939
4908.000000	43.046123
4906.000000	43.104987
4904.000000	43.162799
4902.000000	43.221089
4900.000000	43.279454
4898.000000	43.338655
4896.000000	43.398575
4894.000000	43.459074
4892.000000	43.518147
4890.000000	43.577087
4888.000000	43.636551
4886.000000	43.697058
4884.000000	43.757309
4882.000000	43.817460
4880.000000	43.876529
4878.000000	43.935794
4876.000000	43.994528
4874.000000	44.052915
4872.000000	44.111063
4870.000000	44.171243
4868.000000	44.231573
4866.000000	44.290033
4864.000000	44.347143
4862.000000	44.405166
4860.000000	44.463330
4858.000000	44.522014
4856.000000	44.580956
4854.000000	44.639625
4852.000000	44.697248
4850.000000	44.755607
4848.000000	44.814198
4846.000000	44.872567
4844.000000	44.929541
4842.000000	44.986241
4840.000000	45.043061
4838.000000	45.101246
4836.000000	45.159570
4834.000000	45.218352
4832.000000	45.276864
4830.000000	45.334964
4828.000000	45.391932
4826.000000	45.449536
4824.000000	45.507848
4822.000000	45.566947
4820.000000	45.626046
4818.000000	45.684729
4816.000000	45.743101
4814.000000	45.802201
4812.000000	45.861645
4810.000000	45.922037
4808.000000	45.982262
4806.000000	46.042098
4804.000000	46.101251
4802.000000	46.161934
4800.000000	46.222772
4798.000000	46.283267
4796.000000	46.342681
4794.000000	46.402850
4792.000000	46.463517
4790.000000	46.524767
4788.000000	46.586379
4786.000000	46.647952
4784.000000	46.707424
4782.000000	46.767142
4780.000000	46.827405
4778.000000	46.887835
4776.000000	46.947405
4774.000000	47.007801
4772.000000	47.067870
4770.000000	47.128118
4768.000000	47.188042
4766.000000	47.247794
4764.000000	47.307072
4762.000000	47.366505
4760.000000	47.424787
4758.000000	47.482964
4756.000000	47.541667
4754.000000	47.600647
4752.000000	47.658373
4750.000000	47.716323
4748.000000	47.774730
4746.000000	47.834318
4744.000000	47.893132
4742.000000	47.950911
4740.000000	48.007788
4738.000000	48.065700
4736.000000	48.124207
4734.000000	48.183113
4732.000000	48.240936
4730.000000	48.298444
4728.000000	48.356396
4726.000000	48.415758
4724.000000	48.475291
4722.000000	48.535795
4720.000000	48.596863
4718.000000	48.657972
4716.000000	48.719206
4714.000000	48.781911
4712.000000	48.845067
4710.000000	48.907508
4708.000000	48.969658
4706.000000	49.032471
4704.000000	49.096060
4702.000000	49.160904
4700.000000	49.224564
4698.000000	49.286181
4696.000000	49.346315
4694.000000	49.408058
4692.000000	49.470829
4690.000000	49.533489
4688.000000	49.595137
4686.000000	49.656263
4684.000000	49.716808
4682.000000	49.779356
4680.000000	49.842313
4678.000000	49.903570
4676.000000	49.964192
4674.000000	50.026952
4672.000000	50.088906
4670.000000	50.149779
4668.000000	50.209483
4666.000000	50.269561
4664.000000	50.331313
4662.000000	50.394943
4660.000000	50.456454
4658.000000	50.516441
4656.000000	50.576974
4654.000000	50.638761
4652.000000	50.699699
4650.000000	50.760436
4648.000000	50.821273
4646.000000	50.883377
4644.000000	50.945820
4642.000000	51.008017
4640.000000	51.069042
4638.000000	51.130563
4636.000000	51.191751
4634.000000	51.253339
4632.000000	51.314789
4630.000000	51.376546
4628.000000	51.437276
4626.000000	51.498049
4624.000000	51.558697
4622.000000	51.620534
4620.000000	51.682664
4618.000000	51.745656
4616.000000	51.809135
4614.000000	51.874091
4612.000000	51.939010
4610.000000	52.004268
4608.000000	52.069295
4606.000000	52.134973
4604.000000	52.199540
4602.000000	52.263553
4600.000000	52.327599
4598.000000	52.393368
4596.000000	52.459224
4594.000000	52.524157
4592.000000	52.587594
4590.000000	52.652566
4588.000000	52.717768
4586.000000	52.782610
4584.000000	52.847116
4582.000000	52.911956
4580.000000	52.975658
4578.000000	53.040487
4576.000000	53.105184
4574.000000	53.168745
4572.000000	53.231718
4570.000000	53.296169
4568.000000	53.360354
4566.000000	53.423801
4564.000000	53.486852
4562.000000	53.550872
4560.000000	53.614098
4558.000000	53.677336
4556.000000	53.740632
4554.000000	53.803905
4552.000000	53.866443
4550.000000	53.929833
4548.000000	53.992940
4546.000000	54.056267
4544.000000	54.118706
4542.000000	54.180743
4540.000000	54.242352
4538.000000	54.305190
4536.000000	54.367868
4534.000000	54.431617
4532.000000	54.495519
4530.000000	54.559001
4528.000000	54.620591
4526.000000	54.683273
4524.000000	54.747877
4522.000000	54.813471
4520.000000	54.877579
4518.000000	54.941761
4516.000000	55.005993
4514.000000	55.071211
4512.000000	55.136037
4510.000000	55.200718
4508.000000	55.265599
4506.000000	55.332384
4504.000000	55.398930
4502.000000	55.465324
4500.000000	55.529802
4498.000000	55.594346
4496.000000	55.660844
4494.000000	55.728575
4492.000000	55.793549
4490.000000	55.858769
4488.000000	55.924867
4486.000000	55.990846
4484.000000	56.055621
4482.000000	56.119358
4480.000000	56.181819
4478.000000	56.246611
4476.000000	56.311672
4474.000000	56.375111
4472.000000	56.437839
4470.000000	56.502140
4468.000000	56.565552
4466.000000	56.628354
4464.000000	56.691579
4462.000000	56.754973
4460.000000	56.815855
4458.000000	56.877572
4456.000000	56.940327
4454.000000	57.002970
4452.000000	57.064656
4450.000000	57.126197
4448.000000	57.187210
4446.000000	57.250762
4444.000000	57.314574
4442.000000	57.377213
4440.000000	57.439733
4438.000000	57.503772
4436.000000	57.566543
4434.000000	57.629003
4432.000000	57.691787
4430.000000	57.756058
4428.000000	57.820121
4426.000000	57.883088
4424.000000	57.944380
4422.000000	58.007701
4420.000000	58.071777
4418.000000	58.135595
4416.000000	58.199151
4414.000000	58.264386
4412.000000	58.329911
4410.000000	58.395804
4408.000000	58.460082
4406.000000	58.524348
4404.000000	58.589135
4402.000000	58.654582
4400.000000	58.719874
4398.000000	58.785150
4396.000000	58.848404
4394.000000	58.911103
4392.000000	58.974104
4390.000000	59.037878
4388.000000	59.100703
4386.000000	59.162864
4384.000000	59.223865
4382.000000	59.284525
4380.000000	59.344242
4378.000000	59.404741
4376.000000	59.465215
4374.000000	59.525496
4372.000000	59.585452
4370.000000	59.646735
4368.000000	59.707425
4366.000000	59.767222
4364.000000	59.826563
4362.000000	59.888125
4360.000000	59.950788
4358.000000	60.014020
4356.000000	60.077040
4354.000000	60.140440
4352.000000	60.202508
4350.000000	60.265026
4348.000000	60.327656
4346.000000	60.390919
4344.000000	60.454732
4342.000000	60.519299
4340.000000	60.582612
4338.000000	60.646330
4336.000000	60.709421
4334.000000	60.773332
4332.000000	60.838746
4330.000000	60.904465
4328.000000	60.968087
4326.000000	61.032224
4324.000000	61.097327
4322.000000	61.164524
4320.000000	61.232580
4318.000000	61.301519
4316.000000	61.369511
4314.000000	61.436606
4312.000000	61.502794
4310.000000	61.570668
4308.000000	61.637919
4306.000000	61.704059
4304.000000	61.769641
4302.000000	61.837081
4300.000000	61.904249
4298.000000	61.970514
4296.000000	62.034805
4294.000000	62.099562
4292.000000	62.164052
