PE IR       SUBTECH     SPECTRUM    ASCII       PEDS        4.00        
   -1
TE110A_011_80K_BG.ASC
20/05/14
11:55:36.00
20/05/14
11:55:36.00
Administrator
TE108A.Thursday, May 14 2020, 006.
1000.000000
#HDR
-1
-1
#GR
cm-1
EGY
1.0
0.0
6000.000000
-2.000000
2501
8
105.650426
11.020528
#DATA
6000.000000	16.768133
5998.000000	16.801450
5996.000000	16.833983
5994.000000	16.866971
5992.000000	16.900660
5990.000000	16.934006
5988.000000	16.966724
5986.000000	16.998829
5984.000000	17.031935
5982.000000	17.066242
5980.000000	17.099609
5978.000000	17.132759
5976.000000	17.165776
5974.000000	17.199435
5972.000000	17.233440
5970.000000	17.268197
5968.000000	17.303204
5966.000000	17.337582
5964.000000	17.371482
5962.000000	17.406525
5960.000000	17.442181
5958.000000	17.477478
5956.000000	17.510882
5954.000000	17.544261
5952.000000	17.577606
5950.000000	17.612592
5948.000000	17.647313
5946.000000	17.681256
5944.000000	17.714380
5942.000000	17.748389
5940.000000	17.782842
5938.000000	17.817614
5936.000000	17.852067
5934.000000	17.886501
5932.000000	17.921277
5930.000000	17.954803
5928.000000	17.987697
5926.000000	18.021703
5924.000000	18.056516
5922.000000	18.092677
5920.000000	18.128996
5918.000000	18.165515
5916.000000	18.202267
5914.000000	18.239339
5912.000000	18.276347
5910.000000	18.313412
5908.000000	18.350207
5906.000000	18.386255
5904.000000	18.421772
5902.000000	18.458834
5900.000000	18.496358
5898.000000	18.534129
5896.000000	18.570010
5894.000000	18.605073
5892.000000	18.641868
5890.000000	18.680067
5888.000000	18.717479
5886.000000	18.752828
5884.000000	18.786811
5882.000000	18.822281
5880.000000	18.859057
5878.000000	18.895891
5876.000000	18.931455
5874.000000	18.968366
5872.000000	19.005748
5870.000000	19.042914
5868.000000	19.079350
5866.000000	19.116942
5864.000000	19.155059
5862.000000	19.193317
5860.000000	19.230602
5858.000000	19.267901
5856.000000	19.305818
5854.000000	19.344237
5852.000000	19.383355
5850.000000	19.423296
5848.000000	19.462858
5846.000000	19.502945
5844.000000	19.543034
5842.000000	19.583075
5840.000000	19.623540
5838.000000	19.665007
5836.000000	19.706965
5834.000000	19.749293
5832.000000	19.790947
5830.000000	19.832311
5828.000000	19.874376
5826.000000	19.916595
5824.000000	19.958403
5822.000000	19.999707
5820.000000	20.040152
5818.000000	20.081961
5816.000000	20.122847
5814.000000	20.163448
5812.000000	20.203627
5810.000000	20.244149
5808.000000	20.285456
5806.000000	20.327041
5804.000000	20.367981
5802.000000	20.408290
5800.000000	20.447738
5798.000000	20.488422
5796.000000	20.529526
5794.000000	20.571218
5792.000000	20.612934
5790.000000	20.655495
5788.000000	20.697571
5786.000000	20.739313
5784.000000	20.780442
5782.000000	20.822545
5780.000000	20.865011
5778.000000	20.906990
5776.000000	20.949002
5774.000000	20.990926
5772.000000	21.033009
5770.000000	21.075954
5768.000000	21.118298
5766.000000	21.160800
5764.000000	21.203275
5762.000000	21.245336
5760.000000	21.287463
5758.000000	21.329139
5756.000000	21.371125
5754.000000	21.413156
5752.000000	21.454429
5750.000000	21.495804
5748.000000	21.537617
5746.000000	21.579805
5744.000000	21.621381
5742.000000	21.662693
5740.000000	21.703897
5738.000000	21.745457
5736.000000	21.786320
5734.000000	21.826162
5732.000000	21.865793
5730.000000	21.906317
5728.000000	21.947145
5726.000000	21.988682
5724.000000	22.030084
5722.000000	22.071812
5720.000000	22.114751
5718.000000	22.158212
5716.000000	22.202835
5714.000000	22.247014
5712.000000	22.290794
5710.000000	22.334381
5708.000000	22.377640
5706.000000	22.421482
5704.000000	22.466063
5702.000000	22.510690
5700.000000	22.555481
5698.000000	22.600613
5696.000000	22.645754
5694.000000	22.691665
5692.000000	22.737685
5690.000000	22.785078
5688.000000	22.831207
5686.000000	22.875373
5684.000000	22.919305
5682.000000	22.964667
5680.000000	23.011371
5678.000000	23.057097
5676.000000	23.101917
5674.000000	23.147082
5672.000000	23.192738
5670.000000	23.239072
5668.000000	23.284848
5666.000000	23.330604
5664.000000	23.376342
5662.000000	23.422332
5660.000000	23.469221
5658.000000	23.515095
5656.000000	23.560293
5654.000000	23.605625
5652.000000	23.650680
5650.000000	23.696491
5648.000000	23.741702
5646.000000	23.787044
5644.000000	23.832632
5642.000000	23.878921
5640.000000	23.926123
5638.000000	23.972522
5636.000000	24.017914
5634.000000	24.063365
5632.000000	24.109155
5630.000000	24.154938
5628.000000	24.200147
5626.000000	24.246193
5624.000000	24.293442
5622.000000	24.340025
5620.000000	24.385144
5618.000000	24.429267
5616.000000	24.474412
5614.000000	24.520622
5612.000000	24.566996
5610.000000	24.613371
5608.000000	24.659230
5606.000000	24.704130
5604.000000	24.748575
5602.000000	24.794472
5600.000000	24.842332
5598.000000	24.890859
5596.000000	24.937547
5594.000000	24.983193
5592.000000	25.028741
5590.000000	25.075287
5588.000000	25.122541
5586.000000	25.170014
5584.000000	25.217718
5582.000000	25.265284
5580.000000	25.312088
5578.000000	25.359006
5576.000000	25.406474
5574.000000	25.454888
5572.000000	25.503275
5570.000000	25.550794
5568.000000	25.598504
5566.000000	25.647151
5564.000000	25.696273
5562.000000	25.744986
5560.000000	25.792703
5558.000000	25.840265
5556.000000	25.887121
5554.000000	25.933980
5552.000000	25.981378
5550.000000	26.029435
5548.000000	26.077241
5546.000000	26.124913
5544.000000	26.173293
5542.000000	26.221480
5540.000000	26.268712
5538.000000	26.315516
5536.000000	26.363424
5534.000000	26.411921
5532.000000	26.459512
5530.000000	26.507352
5528.000000	26.555969
5526.000000	26.604020
5524.000000	26.649660
5522.000000	26.695304
5520.000000	26.742614
5518.000000	26.791872
5516.000000	26.840781
5514.000000	26.889442
5512.000000	26.936336
5510.000000	26.980641
5508.000000	27.025054
5506.000000	27.073590
5504.000000	27.125721
5502.000000	27.176447
5500.000000	27.223807
5498.000000	27.267985
5496.000000	27.307753
5494.000000	27.348512
5492.000000	27.394520
5490.000000	27.449418
5488.000000	27.507909
5486.000000	27.564974
5484.000000	27.619457
5482.000000	27.669577
5480.000000	27.710939
5478.000000	27.745143
5476.000000	27.786024
5474.000000	27.840716
5472.000000	27.900559
5470.000000	27.953155
5468.000000	28.000487
5466.000000	28.047440
5464.000000	28.091471
5462.000000	28.136786
5460.000000	28.188640
5458.000000	28.246230
5456.000000	28.303608
5454.000000	28.354714
5452.000000	28.398667
5450.000000	28.435254
5448.000000	28.470860
5446.000000	28.513333
5444.000000	28.560867
5442.000000	28.616687
5440.000000	28.674111
5438.000000	28.725407
5436.000000	28.771327
5434.000000	28.815271
5432.000000	28.858514
5430.000000	28.903849
5428.000000	28.960464
5426.000000	29.029549
5424.000000	29.096059
5422.000000	29.153458
5420.000000	29.202788
5418.000000	29.235113
5416.000000	29.254599
5414.000000	29.281400
5412.000000	29.331921
5410.000000	29.401730
5408.000000	29.471640
5406.000000	29.535081
5404.000000	29.592058
5402.000000	29.645162
5400.000000	29.690631
5398.000000	29.724063
5396.000000	29.754495
5394.000000	29.801566
5392.000000	29.866783
5390.000000	29.929571
5388.000000	29.975831
5386.000000	30.020831
5384.000000	30.078216
5382.000000	30.137378
5380.000000	30.178061
5378.000000	30.211539
5376.000000	30.259483
5374.000000	30.327841
5372.000000	30.399372
5370.000000	30.460540
5368.000000	30.510641
5366.000000	30.555576
5364.000000	30.603808
5362.000000	30.659565
5360.000000	30.715255
5358.000000	30.755901
5356.000000	30.782698
5354.000000	30.818482
5352.000000	30.872537
5350.000000	30.930966
5348.000000	30.969799
5346.000000	31.003605
5344.000000	31.051158
5342.000000	31.103655
5340.000000	31.151566
5338.000000	31.205475
5336.000000	31.274925
5334.000000	31.345762
5332.000000	31.400556
5330.000000	31.444444
5328.000000	31.492218
5326.000000	31.550806
5324.000000	31.616465
5322.000000	31.677178
5320.000000	31.729006
5318.000000	31.777695
5316.000000	31.827714
5314.000000	31.880783
5312.000000	31.929226
5310.000000	31.970465
5308.000000	32.014637
5306.000000	32.068635
5304.000000	32.127067
5302.000000	32.181762
5300.000000	32.234746
5298.000000	32.289524
5296.000000	32.342369
5294.000000	32.385936
5292.000000	32.425485
5290.000000	32.473942
5288.000000	32.531631
5286.000000	32.590484
5284.000000	32.644648
5282.000000	32.699084
5280.000000	32.756024
5278.000000	32.813202
5276.000000	32.868760
5274.000000	32.920633
5272.000000	32.968087
5270.000000	33.012939
5268.000000	33.049533
5266.000000	33.082465
5264.000000	33.125707
5262.000000	33.189570
5260.000000	33.260081
5258.000000	33.314147
5256.000000	33.359542
5254.000000	33.412272
5252.000000	33.464501
5250.000000	33.505505
5248.000000	33.544038
5246.000000	33.598271
5244.000000	33.666941
5242.000000	33.736727
5240.000000	33.801779
5238.000000	33.857533
5236.000000	33.906147
5234.000000	33.951091
5232.000000	33.999332
5230.000000	34.046843
5228.000000	34.087896
5226.000000	34.132265
5224.000000	34.191296
5222.000000	34.257063
5220.000000	34.315598
5218.000000	34.371084
5216.000000	34.429482
5214.000000	34.485282
5212.000000	34.527606
5210.000000	34.555272
5208.000000	34.587491
5206.000000	34.645186
5204.000000	34.722331
5202.000000	34.794558
5200.000000	34.848675
5198.000000	34.897994
5196.000000	34.953477
5194.000000	35.014263
5192.000000	35.070826
5190.000000	35.121063
5188.000000	35.168538
5186.000000	35.219566
5184.000000	35.275568
5182.000000	35.335361
5180.000000	35.393501
5178.000000	35.450399
5176.000000	35.507199
5174.000000	35.562491
5172.000000	35.616273
5170.000000	35.671414
5168.000000	35.726685
5166.000000	35.779332
5164.000000	35.831102
5162.000000	35.886212
5160.000000	35.941785
5158.000000	35.995758
5156.000000	36.050575
5154.000000	36.107807
5152.000000	36.166289
5150.000000	36.223055
5148.000000	36.278171
5146.000000	36.331109
5144.000000	36.382500
5142.000000	36.435841
5140.000000	36.491019
5138.000000	36.547192
5136.000000	36.601281
5134.000000	36.654936
5132.000000	36.709084
5130.000000	36.764661
5128.000000	36.820904
5126.000000	36.876178
5124.000000	36.929647
5122.000000	36.982442
5120.000000	37.036000
5118.000000	37.091255
5116.000000	37.147197
5114.000000	37.202509
5112.000000	37.256590
5110.000000	37.311229
5108.000000	37.366468
5106.000000	37.422871
5104.000000	37.479309
5102.000000	37.535254
5100.000000	37.590139
5098.000000	37.645066
5096.000000	37.701212
5094.000000	37.758839
5092.000000	37.816294
5090.000000	37.872985
5088.000000	37.929047
5086.000000	37.985514
5084.000000	38.041355
5082.000000	38.098372
5080.000000	38.156377
5078.000000	38.213851
5076.000000	38.269957
5074.000000	38.326434
5072.000000	38.383954
5070.000000	38.441019
5068.000000	38.497571
5066.000000	38.554593
5064.000000	38.611592
5062.000000	38.667811
5060.000000	38.724437
5058.000000	38.782172
5056.000000	38.839160
5054.000000	38.895561
5052.000000	38.951942
5050.000000	39.008366
5048.000000	39.063970
5046.000000	39.120295
5044.000000	39.176078
5042.000000	39.231551
5040.000000	39.287432
5038.000000	39.344488
5036.000000	39.400936
5034.000000	39.456418
5032.000000	39.511175
5030.000000	39.567442
5028.000000	39.624711
5026.000000	39.681608
5024.000000	39.737018
5022.000000	39.793009
5020.000000	39.850057
5018.000000	39.907712
5016.000000	39.964638
5014.000000	40.021811
5012.000000	40.078996
5010.000000	40.136346
5008.000000	40.192965
5006.000000	40.249378
5004.000000	40.305996
5002.000000	40.364147
5000.000000	40.423319
4998.000000	40.482424
4996.000000	40.539798
4994.000000	40.597217
4992.000000	40.654843
4990.000000	40.713629
4988.000000	40.772780
4986.000000	40.832664
4984.000000	40.892026
4982.000000	40.951454
4980.000000	41.009637
4978.000000	41.066526
4976.000000	41.123018
4974.000000	41.181469
4972.000000	41.240214
4970.000000	41.298406
4968.000000	41.356634
4966.000000	41.415309
4964.000000	41.473003
4962.000000	41.530132
4960.000000	41.587751
4958.000000	41.645231
4956.000000	41.702442
4954.000000	41.760306
4952.000000	41.817542
4950.000000	41.873932
4948.000000	41.930791
4946.000000	41.988254
4944.000000	42.044793
4942.000000	42.102200
4940.000000	42.160100
4938.000000	42.217514
4936.000000	42.273879
4934.000000	42.330510
4932.000000	42.387426
4930.000000	42.444488
4928.000000	42.501506
4926.000000	42.559112
4924.000000	42.617372
4922.000000	42.674972
4920.000000	42.731405
4918.000000	42.788416
4916.000000	42.845671
4914.000000	42.903937
4912.000000	42.962099
4910.000000	43.020754
4908.000000	43.079199
4906.000000	43.138393
4904.000000	43.197146
4902.000000	43.256284
4900.000000	43.315994
4898.000000	43.376085
4896.000000	43.435140
4894.000000	43.494017
4892.000000	43.552852
4890.000000	43.612448
4888.000000	43.672215
4886.000000	43.732018
4884.000000	43.791219
4882.000000	43.850439
4880.000000	43.909471
4878.000000	43.968869
4876.000000	44.027770
4874.000000	44.087350
4872.000000	44.147032
4870.000000	44.206625
4868.000000	44.264916
4866.000000	44.323174
4864.000000	44.381730
4862.000000	44.441723
4860.000000	44.501348
4858.000000	44.559479
4856.000000	44.616266
4854.000000	44.674105
4852.000000	44.732200
4850.000000	44.790372
4848.000000	44.848315
4846.000000	44.906374
4844.000000	44.963891
4842.000000	45.022292
4840.000000	45.081138
4838.000000	45.138909
4836.000000	45.195693
4834.000000	45.253390
4832.000000	45.310964
4830.000000	45.368853
4828.000000	45.427557
4826.000000	45.486626
4824.000000	45.544394
4822.000000	45.602970
4820.000000	45.662194
4818.000000	45.721829
4816.000000	45.780755
4814.000000	45.839381
4812.000000	45.897891
4810.000000	45.957829
4808.000000	46.018311
4806.000000	46.078607
4804.000000	46.138198
4802.000000	46.198840
4800.000000	46.259459
4798.000000	46.319861
4796.000000	46.379543
4794.000000	46.439445
4792.000000	46.499970
4790.000000	46.561878
4788.000000	46.622760
4786.000000	46.682989
4784.000000	46.744007
4782.000000	46.805796
4780.000000	46.865547
4778.000000	46.924194
4776.000000	46.982963
4774.000000	47.043532
4772.000000	47.103882
4770.000000	47.163181
4768.000000	47.222520
4766.000000	47.283703
4764.000000	47.344341
4762.000000	47.403981
4760.000000	47.463120
4758.000000	47.522184
4756.000000	47.579770
4754.000000	47.636472
4752.000000	47.693584
4750.000000	47.752110
4748.000000	47.810786
4746.000000	47.869775
4744.000000	47.928442
4742.000000	47.986383
4740.000000	48.043209
4738.000000	48.100766
4736.000000	48.158833
4734.000000	48.217408
4732.000000	48.275848
4730.000000	48.334629
4728.000000	48.392945
4726.000000	48.452039
4724.000000	48.511717
4722.000000	48.571799
4720.000000	48.631492
4718.000000	48.692900
4716.000000	48.755701
4714.000000	48.818564
4712.000000	48.880286
4710.000000	48.942641
4708.000000	49.005608
4706.000000	49.069498
4704.000000	49.133420
4702.000000	49.197545
4700.000000	49.261195
4698.000000	49.324904
4696.000000	49.386869
4694.000000	49.448212
4692.000000	49.509518
4690.000000	49.571060
4688.000000	49.631532
4686.000000	49.692951
4684.000000	49.755227
4682.000000	49.817734
4680.000000	49.879514
4678.000000	49.941553
4676.000000	50.002617
4674.000000	50.063319
4672.000000	50.124136
4670.000000	50.185708
4668.000000	50.246641
4666.000000	50.307364
4664.000000	50.368471
4662.000000	50.430334
4660.000000	50.491735
4658.000000	50.553766
4656.000000	50.615846
4654.000000	50.676795
4652.000000	50.737216
4650.000000	50.799421
4648.000000	50.861109
4646.000000	50.922043
4644.000000	50.983170
4642.000000	51.045141
4640.000000	51.105917
4638.000000	51.166966
4636.000000	51.228552
4634.000000	51.291027
4632.000000	51.352485
4630.000000	51.412876
4628.000000	51.472656
4626.000000	51.534902
4624.000000	51.597807
4622.000000	51.660686
4620.000000	51.723428
4618.000000	51.786185
4616.000000	51.847848
4614.000000	51.910748
4612.000000	51.974766
4610.000000	52.039171
4608.000000	52.103493
4606.000000	52.169275
4604.000000	52.235620
4602.000000	52.301893
4600.000000	52.367851
4598.000000	52.433411
4596.000000	52.497490
4594.000000	52.561925
4592.000000	52.626876
4590.000000	52.691548
4588.000000	52.755832
4586.000000	52.820930
4584.000000	52.885484
4582.000000	52.949939
4580.000000	53.014461
4578.000000	53.079469
4576.000000	53.143405
4574.000000	53.207050
4572.000000	53.270846
4570.000000	53.335104
4568.000000	53.398439
4566.000000	53.462194
4564.000000	53.526112
4562.000000	53.590080
4560.000000	53.652949
4558.000000	53.715954
4556.000000	53.778800
4554.000000	53.842041
4552.000000	53.903936
4550.000000	53.965895
4548.000000	54.028735
4546.000000	54.092708
4544.000000	54.155704
4542.000000	54.218612
4540.000000	54.281256
4538.000000	54.344244
4536.000000	54.407371
4534.000000	54.471787
4532.000000	54.535469
4530.000000	54.598133
4528.000000	54.660461
4526.000000	54.723562
4524.000000	54.786277
4522.000000	54.850845
4520.000000	54.916498
4518.000000	54.982093
4516.000000	55.047115
4514.000000	55.112889
4512.000000	55.178272
4510.000000	55.243765
4508.000000	55.308593
4506.000000	55.373022
4504.000000	55.436892
4502.000000	55.501941
4500.000000	55.568082
4498.000000	55.635423
4496.000000	55.702349
4494.000000	55.768693
4492.000000	55.834280
4490.000000	55.900448
4488.000000	55.965483
4486.000000	56.030207
4484.000000	56.094324
4482.000000	56.158864
4480.000000	56.223978
4478.000000	56.289649
4476.000000	56.353113
4474.000000	56.415273
4472.000000	56.477364
4470.000000	56.541125
4468.000000	56.605390
4466.000000	56.668899
4464.000000	56.730724
4462.000000	56.792870
4460.000000	56.854987
4458.000000	56.917851
4456.000000	56.980767
4454.000000	57.043321
4452.000000	57.104190
4450.000000	57.165912
4448.000000	57.228323
4446.000000	57.291890
4444.000000	57.355021
4442.000000	57.417678
4440.000000	57.479793
4438.000000	57.542888
4436.000000	57.605744
4434.000000	57.669042
4432.000000	57.732015
4430.000000	57.795627
4428.000000	57.858955
4426.000000	57.921829
4424.000000	57.984506
4422.000000	58.048987
4420.000000	58.113766
4418.000000	58.178777
4416.000000	58.242558
4414.000000	58.306201
4412.000000	58.370722
4410.000000	58.436458
4408.000000	58.500773
4406.000000	58.565471
4404.000000	58.631242
4402.000000	58.697101
4400.000000	58.760512
4398.000000	58.824073
4396.000000	58.888223
4394.000000	58.952551
4392.000000	59.015673
4390.000000	59.079168
4388.000000	59.141814
4386.000000	59.203684
4384.000000	59.264817
4382.000000	59.327252
4380.000000	59.388318
4378.000000	59.448367
4376.000000	59.508707
4374.000000	59.570015
4372.000000	59.629688
4370.000000	59.688374
4368.000000	59.746562
4366.000000	59.807772
4364.000000	59.870292
4362.000000	59.931671
4360.000000	59.991662
4358.000000	60.053218
4356.000000	60.115470
4354.000000	60.178763
4352.000000	60.242236
4350.000000	60.306571
4348.000000	60.370302
4346.000000	60.434050
4344.000000	60.497205
4342.000000	60.560573
4340.000000	60.623641
4338.000000	60.686702
4336.000000	60.749379
4334.000000	60.814471
4332.000000	60.880371
4330.000000	60.945650
4328.000000	61.009171
4326.000000	61.073181
4324.000000	61.138965
4322.000000	61.207064
4320.000000	61.274751
4318.000000	61.342675
4316.000000	61.410718
4314.000000	61.479091
4312.000000	61.545783
4310.000000	61.612599
4308.000000	61.680692
4306.000000	61.749165
4304.000000	61.815306
4302.000000	61.880701
4300.000000	61.946820
4298.000000	62.014368
4296.000000	62.079272
4294.000000	62.142228
4292.000000	62.205810
