PE IR       SUBTECH     SPECTRUM    ASCII       PEDS        4.00        
   -1
TE110A_023_100K_BG.ASC
20/05/14
12:22:49.00
20/05/14
12:22:49.00
Administrator
TE110A.Thursday, May 14 2020, 006.
1000.000000
#HDR
-1
-1
#GR
cm-1
EGY
1.0
0.0
6000.000000
-2.000000
2501
8
105.572208
11.033185
#DATA
6000.000000	16.740038
5998.000000	16.772485
5996.000000	16.805575
5994.000000	16.839156
5992.000000	16.872684
5990.000000	16.905900
5988.000000	16.937947
5986.000000	16.970323
5984.000000	17.004204
5982.000000	17.038267
5980.000000	17.072340
5978.000000	17.105575
5976.000000	17.138289
5974.000000	17.171922
5972.000000	17.205658
5970.000000	17.240208
5968.000000	17.274472
5966.000000	17.308804
5964.000000	17.343819
5962.000000	17.379202
5960.000000	17.414155
5958.000000	17.448357
5956.000000	17.481952
5954.000000	17.516403
5952.000000	17.550774
5950.000000	17.585007
5948.000000	17.618906
5946.000000	17.652098
5944.000000	17.685160
5942.000000	17.719573
5940.000000	17.754148
5938.000000	17.788803
5936.000000	17.822555
5934.000000	17.856049
5932.000000	17.889561
5930.000000	17.922953
5928.000000	17.957012
5926.000000	17.992896
5924.000000	18.028996
5922.000000	18.064603
5920.000000	18.099448
5918.000000	18.133785
5916.000000	18.169099
5914.000000	18.206350
5912.000000	18.244609
5910.000000	18.282958
5908.000000	18.319351
5906.000000	18.354191
5904.000000	18.389450
5902.000000	18.426342
5900.000000	18.464907
5898.000000	18.503253
5896.000000	18.540126
5894.000000	18.576381
5892.000000	18.612977
5890.000000	18.649041
5888.000000	18.685155
5886.000000	18.721343
5884.000000	18.756771
5882.000000	18.792426
5880.000000	18.828180
5878.000000	18.865283
5876.000000	18.902530
5874.000000	18.938793
5872.000000	18.975275
5870.000000	19.011946
5868.000000	19.048165
5866.000000	19.084910
5864.000000	19.122021
5862.000000	19.160013
5860.000000	19.198453
5858.000000	19.236970
5856.000000	19.275654
5854.000000	19.313906
5852.000000	19.351452
5850.000000	19.389757
5848.000000	19.428955
5846.000000	19.469464
5844.000000	19.509848
5842.000000	19.550249
5840.000000	19.590992
5838.000000	19.632343
5836.000000	19.674062
5834.000000	19.715634
5832.000000	19.757432
5830.000000	19.799988
5828.000000	19.842217
5826.000000	19.883790
5824.000000	19.925026
5822.000000	19.965914
5820.000000	20.006234
5818.000000	20.047245
5816.000000	20.088416
5814.000000	20.129588
5812.000000	20.169525
5810.000000	20.209605
5808.000000	20.251356
5806.000000	20.293067
5804.000000	20.333586
5802.000000	20.373467
5800.000000	20.414007
5798.000000	20.455031
5796.000000	20.495392
5794.000000	20.535987
5792.000000	20.576915
5790.000000	20.618064
5788.000000	20.659483
5786.000000	20.702047
5784.000000	20.744268
5782.000000	20.786409
5780.000000	20.828408
5778.000000	20.871546
5776.000000	20.914713
5774.000000	20.956400
5772.000000	20.996483
5770.000000	21.037882
5768.000000	21.080549
5766.000000	21.123903
5764.000000	21.166224
5762.000000	21.207157
5760.000000	21.248393
5758.000000	21.289874
5756.000000	21.330791
5754.000000	21.372580
5752.000000	21.414361
5750.000000	21.456703
5748.000000	21.498799
5746.000000	21.540821
5744.000000	21.583480
5742.000000	21.625950
5740.000000	21.667148
5738.000000	21.707644
5736.000000	21.746997
5734.000000	21.786739
5732.000000	21.826601
5730.000000	21.867207
5728.000000	21.908593
5726.000000	21.949879
5724.000000	21.991412
5722.000000	22.033602
5720.000000	22.076839
5718.000000	22.120541
5716.000000	22.163166
5714.000000	22.205619
5712.000000	22.248622
5710.000000	22.292670
5708.000000	22.336759
5706.000000	22.380260
5704.000000	22.423374
5702.000000	22.467592
5700.000000	22.512633
5698.000000	22.558655
5696.000000	22.604983
5694.000000	22.650696
5692.000000	22.695379
5690.000000	22.739877
5688.000000	22.784601
5686.000000	22.830038
5684.000000	22.875048
5682.000000	22.920580
5680.000000	22.967333
5678.000000	23.013280
5676.000000	23.058237
5674.000000	23.103357
5672.000000	23.149459
5670.000000	23.195511
5668.000000	23.240799
5666.000000	23.286542
5664.000000	23.332796
5662.000000	23.379565
5660.000000	23.425876
5658.000000	23.471528
5656.000000	23.515370
5654.000000	23.559646
5652.000000	23.605693
5650.000000	23.652963
5648.000000	23.698830
5646.000000	23.743660
5644.000000	23.788801
5642.000000	23.835024
5640.000000	23.881046
5638.000000	23.927120
5636.000000	23.972873
5634.000000	24.017917
5632.000000	24.061925
5630.000000	24.106960
5628.000000	24.153561
5626.000000	24.200386
5624.000000	24.246161
5622.000000	24.290969
5620.000000	24.335873
5618.000000	24.381124
5616.000000	24.425979
5614.000000	24.471553
5612.000000	24.517513
5610.000000	24.564095
5608.000000	24.609939
5606.000000	24.655770
5604.000000	24.701895
5602.000000	24.748051
5600.000000	24.793924
5598.000000	24.840119
5596.000000	24.886551
5594.000000	24.933372
5592.000000	24.980318
5590.000000	25.027612
5588.000000	25.073845
5586.000000	25.120127
5584.000000	25.166788
5582.000000	25.214929
5580.000000	25.262843
5578.000000	25.309902
5576.000000	25.356916
5574.000000	25.404682
5572.000000	25.453174
5570.000000	25.500752
5568.000000	25.546944
5566.000000	25.593669
5564.000000	25.641504
5562.000000	25.690831
5560.000000	25.739644
5558.000000	25.787055
5556.000000	25.833778
5554.000000	25.881589
5552.000000	25.929791
5550.000000	25.977244
5548.000000	26.023564
5546.000000	26.071698
5544.000000	26.121183
5542.000000	26.170157
5540.000000	26.215519
5538.000000	26.259932
5536.000000	26.306161
5534.000000	26.355947
5532.000000	26.406937
5530.000000	26.456696
5528.000000	26.503924
5526.000000	26.548448
5524.000000	26.592288
5522.000000	26.638132
5520.000000	26.685983
5518.000000	26.735791
5516.000000	26.785918
5514.000000	26.834925
5512.000000	26.880636
5510.000000	26.923718
5508.000000	26.968160
5506.000000	27.016601
5504.000000	27.067831
5502.000000	27.118078
5500.000000	27.166755
5498.000000	27.212925
5496.000000	27.252834
5494.000000	27.291640
5492.000000	27.334892
5490.000000	27.387587
5488.000000	27.445875
5486.000000	27.504664
5484.000000	27.561272
5482.000000	27.612812
5480.000000	27.654140
5478.000000	27.687687
5476.000000	27.727063
5474.000000	27.780100
5472.000000	27.839524
5470.000000	27.892639
5468.000000	27.940636
5466.000000	27.987859
5464.000000	28.032129
5462.000000	28.078021
5460.000000	28.130005
5458.000000	28.187123
5456.000000	28.244499
5454.000000	28.295812
5452.000000	28.339031
5450.000000	28.374754
5448.000000	28.410467
5446.000000	28.453621
5444.000000	28.500744
5442.000000	28.555936
5440.000000	28.613209
5438.000000	28.662913
5436.000000	28.707479
5434.000000	28.751602
5432.000000	28.795909
5430.000000	28.841946
5428.000000	28.898660
5426.000000	28.969330
5424.000000	29.036876
5422.000000	29.092980
5420.000000	29.139637
5418.000000	29.170704
5416.000000	29.191476
5414.000000	29.218163
5412.000000	29.266697
5410.000000	29.336129
5408.000000	29.407831
5406.000000	29.471933
5404.000000	29.526590
5402.000000	29.577769
5400.000000	29.623673
5398.000000	29.658245
5396.000000	29.689138
5394.000000	29.735674
5392.000000	29.799971
5390.000000	29.862461
5388.000000	29.908614
5386.000000	29.954586
5384.000000	30.012069
5382.000000	30.070262
5380.000000	30.110667
5378.000000	30.145239
5376.000000	30.193953
5374.000000	30.261145
5372.000000	30.330071
5370.000000	30.389875
5368.000000	30.439927
5366.000000	30.486048
5364.000000	30.534758
5362.000000	30.590281
5360.000000	30.645670
5358.000000	30.686863
5356.000000	30.714025
5354.000000	30.748988
5352.000000	30.801965
5350.000000	30.860227
5348.000000	30.898785
5346.000000	30.933122
5344.000000	30.981526
5342.000000	31.034993
5340.000000	31.083032
5338.000000	31.136212
5336.000000	31.205025
5334.000000	31.274741
5332.000000	31.329376
5330.000000	31.373327
5328.000000	31.420514
5326.000000	31.478814
5324.000000	31.544385
5322.000000	31.604780
5320.000000	31.657234
5318.000000	31.707244
5316.000000	31.757451
5314.000000	31.808808
5312.000000	31.856224
5310.000000	31.897475
5308.000000	31.941522
5306.000000	31.995657
5304.000000	32.055384
5302.000000	32.110925
5300.000000	32.163476
5298.000000	32.217155
5296.000000	32.269537
5294.000000	32.312736
5292.000000	32.351468
5290.000000	32.398580
5288.000000	32.456120
5286.000000	32.516182
5284.000000	32.571115
5282.000000	32.625321
5280.000000	32.681322
5278.000000	32.738667
5276.000000	32.794191
5274.000000	32.845163
5272.000000	32.891513
5270.000000	32.936406
5268.000000	32.974615
5266.000000	33.007626
5264.000000	33.049450
5262.000000	33.112216
5260.000000	33.183190
5258.000000	33.238294
5256.000000	33.284012
5254.000000	33.335889
5252.000000	33.387218
5250.000000	33.428504
5248.000000	33.467665
5246.000000	33.521418
5244.000000	33.590233
5242.000000	33.661556
5240.000000	33.726044
5238.000000	33.779213
5236.000000	33.827749
5234.000000	33.874656
5232.000000	33.922401
5230.000000	33.968492
5228.000000	34.009997
5226.000000	34.055207
5224.000000	34.113023
5222.000000	34.178892
5220.000000	34.239284
5218.000000	34.295385
5216.000000	34.351886
5214.000000	34.405322
5212.000000	34.446236
5210.000000	34.474294
5208.000000	34.506576
5206.000000	34.564051
5204.000000	34.640903
5202.000000	34.713687
5200.000000	34.769509
5198.000000	34.819912
5196.000000	34.874742
5194.000000	34.933338
5192.000000	34.989318
5190.000000	35.041188
5188.000000	35.089316
5186.000000	35.139468
5184.000000	35.195228
5182.000000	35.255236
5180.000000	35.314321
5178.000000	35.370880
5176.000000	35.426939
5174.000000	35.480276
5172.000000	35.532649
5170.000000	35.588231
5168.000000	35.644824
5166.000000	35.697942
5164.000000	35.749159
5162.000000	35.803939
5160.000000	35.859796
5158.000000	35.913716
5156.000000	35.968158
5154.000000	36.024922
5152.000000	36.081249
5150.000000	36.136735
5148.000000	36.191631
5146.000000	36.245220
5144.000000	36.297566
5142.000000	36.351002
5140.000000	36.406741
5138.000000	36.462765
5136.000000	36.517544
5134.000000	36.571542
5132.000000	36.625588
5130.000000	36.680880
5128.000000	36.735771
5126.000000	36.790816
5124.000000	36.844549
5122.000000	36.897857
5120.000000	36.950836
5118.000000	37.004702
5116.000000	37.059276
5114.000000	37.114541
5112.000000	37.169774
5110.000000	37.224890
5108.000000	37.280490
5106.000000	37.337279
5104.000000	37.392863
5102.000000	37.447597
5100.000000	37.502571
5098.000000	37.559013
5096.000000	37.615342
5094.000000	37.671646
5092.000000	37.728122
5090.000000	37.785666
5088.000000	37.843398
5086.000000	37.900774
5084.000000	37.957112
5082.000000	38.013518
5080.000000	38.069891
5078.000000	38.125890
5076.000000	38.182329
5074.000000	38.239482
5072.000000	38.296074
5070.000000	38.352413
5068.000000	38.409277
5066.000000	38.467013
5064.000000	38.524177
5062.000000	38.581596
5060.000000	38.638316
5058.000000	38.694656
5056.000000	38.750056
5054.000000	38.805550
5052.000000	38.861689
5050.000000	38.918726
5048.000000	38.974783
5046.000000	39.029799
5044.000000	39.085259
5042.000000	39.142000
5040.000000	39.198573
5038.000000	39.255423
5036.000000	39.312225
5034.000000	39.367765
5032.000000	39.422144
5030.000000	39.477716
5028.000000	39.534025
5026.000000	39.590702
5024.000000	39.647214
5022.000000	39.703408
5020.000000	39.758439
5018.000000	39.814606
5016.000000	39.871543
5014.000000	39.928449
5012.000000	39.985107
5010.000000	40.042384
5008.000000	40.099560
5006.000000	40.157698
5004.000000	40.215555
5002.000000	40.273737
5000.000000	40.331521
4998.000000	40.389639
4996.000000	40.447198
4994.000000	40.505393
4992.000000	40.563898
4990.000000	40.622735
4988.000000	40.681034
4986.000000	40.739264
4984.000000	40.797259
4982.000000	40.855523
4980.000000	40.913815
4978.000000	40.972719
4976.000000	41.031712
4974.000000	41.090141
4972.000000	41.147406
4970.000000	41.204476
4968.000000	41.261912
4966.000000	41.320184
4964.000000	41.378703
4962.000000	41.437210
4960.000000	41.494871
4958.000000	41.552178
4956.000000	41.608943
4954.000000	41.666363
4952.000000	41.723986
4950.000000	41.781688
4948.000000	41.838530
4946.000000	41.894987
4944.000000	41.951326
4942.000000	42.007949
4940.000000	42.064614
4938.000000	42.120986
4936.000000	42.176289
4934.000000	42.232233
4932.000000	42.289786
4930.000000	42.349025
4928.000000	42.407217
4926.000000	42.464035
4924.000000	42.520041
4922.000000	42.576750
4920.000000	42.634357
4918.000000	42.692992
4916.000000	42.751152
4914.000000	42.809046
4912.000000	42.866574
4910.000000	42.924658
4908.000000	42.982568
4906.000000	43.040767
4904.000000	43.098316
4902.000000	43.156467
4900.000000	43.215684
4898.000000	43.276163
4896.000000	43.335620
4894.000000	43.395220
4892.000000	43.456484
4890.000000	43.518400
4888.000000	43.577277
4886.000000	43.634632
4884.000000	43.693343
4882.000000	43.753829
4880.000000	43.813888
4878.000000	43.873078
4876.000000	43.930821
4874.000000	43.988664
4872.000000	44.047263
4870.000000	44.106862
4868.000000	44.166036
4866.000000	44.225706
4864.000000	44.285092
4862.000000	44.343996
4860.000000	44.402637
4858.000000	44.461276
4856.000000	44.518389
4854.000000	44.575383
4852.000000	44.634041
4850.000000	44.693427
4848.000000	44.750392
4846.000000	44.806733
4844.000000	44.864568
4842.000000	44.924096
4840.000000	44.983041
4838.000000	45.040434
4836.000000	45.096114
4834.000000	45.153578
4832.000000	45.212893
4830.000000	45.271837
4828.000000	45.328945
4826.000000	45.386430
4824.000000	45.443476
4822.000000	45.501110
4820.000000	45.559855
4818.000000	45.619434
4816.000000	45.678593
4814.000000	45.736959
4812.000000	45.794340
4810.000000	45.853249
4808.000000	45.914317
4806.000000	45.976332
4804.000000	46.036585
4802.000000	46.095845
4800.000000	46.155398
4798.000000	46.217440
4796.000000	46.278749
4794.000000	46.338472
4792.000000	46.398558
4790.000000	46.460110
4788.000000	46.520641
4786.000000	46.580865
4784.000000	46.641871
4782.000000	46.703608
4780.000000	46.764242
4778.000000	46.824632
4776.000000	46.884182
4774.000000	46.943879
4772.000000	47.003451
4770.000000	47.063361
4768.000000	47.121636
4766.000000	47.179819
4764.000000	47.239012
4762.000000	47.299321
4760.000000	47.358642
4758.000000	47.417375
4756.000000	47.475721
4754.000000	47.534968
4752.000000	47.593699
4750.000000	47.651713
4748.000000	47.708232
4746.000000	47.765416
4744.000000	47.823815
4742.000000	47.882939
4740.000000	47.941142
4738.000000	47.999667
4736.000000	48.057275
4734.000000	48.114194
4732.000000	48.171807
4730.000000	48.231732
4728.000000	48.291198
4726.000000	48.350127
4724.000000	48.408966
4722.000000	48.469553
4720.000000	48.530341
4718.000000	48.591073
4716.000000	48.651706
4714.000000	48.714209
4712.000000	48.776514
4710.000000	48.837854
4708.000000	48.899542
4706.000000	48.964148
4704.000000	49.029983
4702.000000	49.095025
4700.000000	49.157482
4698.000000	49.219110
4696.000000	49.280701
4694.000000	49.342522
4692.000000	49.403479
4690.000000	49.465415
4688.000000	49.527943
4686.000000	49.590350
4684.000000	49.650742
4682.000000	49.711545
4680.000000	49.773926
4678.000000	49.836974
4676.000000	49.897864
4674.000000	49.958400
4672.000000	50.018942
4670.000000	50.079905
4668.000000	50.140846
4666.000000	50.202600
4664.000000	50.263924
4662.000000	50.324922
4660.000000	50.385965
4658.000000	50.448284
4656.000000	50.510126
4654.000000	50.571337
4652.000000	50.632624
4650.000000	50.694436
4648.000000	50.755028
4646.000000	50.815930
4644.000000	50.876977
4642.000000	50.938417
4640.000000	50.999486
4638.000000	51.060830
4636.000000	51.121853
4634.000000	51.183562
4632.000000	51.244625
4630.000000	51.305297
4628.000000	51.366086
4626.000000	51.427987
4624.000000	51.489235
4622.000000	51.550660
4620.000000	51.613238
4618.000000	51.677315
4616.000000	51.740665
4614.000000	51.804173
4612.000000	51.868118
4610.000000	51.933366
4608.000000	51.998505
4606.000000	52.063768
4604.000000	52.128651
4602.000000	52.194034
4600.000000	52.259536
4598.000000	52.325666
4596.000000	52.391100
4594.000000	52.455943
4592.000000	52.519542
4590.000000	52.583103
4588.000000	52.646713
4586.000000	52.711393
4584.000000	52.776400
4582.000000	52.842181
4580.000000	52.906576
4578.000000	52.969956
4576.000000	53.032869
4574.000000	53.097250
4572.000000	53.161306
4570.000000	53.225245
4568.000000	53.289452
4566.000000	53.354613
4564.000000	53.417998
4562.000000	53.480361
4560.000000	53.542241
4558.000000	53.605493
4556.000000	53.668846
4554.000000	53.731953
4552.000000	53.794253
4550.000000	53.857693
4548.000000	53.920678
4546.000000	53.982312
4544.000000	54.042822
4542.000000	54.105681
4540.000000	54.170124
4538.000000	54.234044
4536.000000	54.296072
4534.000000	54.359462
4532.000000	54.423462
4530.000000	54.487352
4528.000000	54.550368
4526.000000	54.613139
4524.000000	54.675434
4522.000000	54.740445
4520.000000	54.806484
4518.000000	54.871193
4516.000000	54.934522
4514.000000	54.999489
4512.000000	55.065627
4510.000000	55.131937
4508.000000	55.196645
4506.000000	55.261477
4504.000000	55.325884
4502.000000	55.391536
4500.000000	55.458481
4498.000000	55.525355
4496.000000	55.590264
4494.000000	55.655157
4492.000000	55.719668
4490.000000	55.784931
4488.000000	55.850163
4486.000000	55.914971
4484.000000	55.980085
4482.000000	56.046418
4480.000000	56.111297
4478.000000	56.175284
4476.000000	56.238087
4474.000000	56.300320
4472.000000	56.362734
4470.000000	56.426984
4468.000000	56.490166
4466.000000	56.552751
4464.000000	56.615654
4462.000000	56.679071
4460.000000	56.741568
4458.000000	56.804413
4456.000000	56.866352
4454.000000	56.928533
4452.000000	56.991422
4450.000000	57.054330
4448.000000	57.115650
4446.000000	57.178287
4444.000000	57.241420
4442.000000	57.303515
4440.000000	57.364173
4438.000000	57.426823
4436.000000	57.491105
4434.000000	57.555610
4432.000000	57.617754
4430.000000	57.679960
4428.000000	57.742819
4426.000000	57.806913
4424.000000	57.870555
4422.000000	57.933966
4420.000000	57.996936
4418.000000	58.061375
4416.000000	58.126046
4414.000000	58.190971
4412.000000	58.255348
4410.000000	58.320328
4408.000000	58.385339
4406.000000	58.451012
4404.000000	58.515273
4402.000000	58.578691
4400.000000	58.641910
4398.000000	58.707034
4396.000000	58.771814
4394.000000	58.835271
4392.000000	58.896814
4390.000000	58.959461
4388.000000	59.022236
4386.000000	59.084657
4384.000000	59.146497
4382.000000	59.209420
4380.000000	59.271930
4378.000000	59.333245
4376.000000	59.391887
4374.000000	59.450094
4372.000000	59.509523
4370.000000	59.570706
4368.000000	59.630753
4366.000000	59.690583
4364.000000	59.751410
4362.000000	59.814178
4360.000000	59.876574
4358.000000	59.937999
4356.000000	59.998228
4354.000000	60.060897
4352.000000	60.125281
4350.000000	60.190083
4348.000000	60.253870
4346.000000	60.317535
4344.000000	60.379961
4342.000000	60.442749
4340.000000	60.505794
4338.000000	60.569152
4336.000000	60.631046
4334.000000	60.692886
4332.000000	60.755720
4330.000000	60.822124
4328.000000	60.889002
4326.000000	60.954796
4324.000000	61.020383
4322.000000	61.087397
4320.000000	61.153623
4318.000000	61.221084
4316.000000	61.289992
4314.000000	61.358967
4312.000000	61.425501
4310.000000	61.491958
4308.000000	61.558754
4306.000000	61.626613
4304.000000	61.694046
4302.000000	61.760175
4300.000000	61.824824
4298.000000	61.890297
4296.000000	61.955485
4294.000000	62.020953
4292.000000	62.085696
