PE IR       SUBTECH     SPECTRUM    ASCII       PEDS        4.00        
   -1
TE110A_084_80K_AFTER_140K_BG.ASC
20/05/14
15:56:09.00
20/05/14
15:56:09.00
Administrator
TE110A.Thursday, May 14 2020, 015.
1000.000000
#HDR
-1
-1
#GR
cm-1
EGY
1.0
0.0
6000.000000
-2.000000
2501
8
105.079097
11.054698
#DATA
6000.000000	16.398282
5998.000000	16.430257
5996.000000	16.463435
5994.000000	16.496604
5992.000000	16.528600
5990.000000	16.560608
5988.000000	16.592510
5986.000000	16.625494
5984.000000	16.658039
5982.000000	16.690511
5980.000000	16.722292
5978.000000	16.754214
5976.000000	16.786984
5974.000000	16.820437
5972.000000	16.853954
5970.000000	16.887805
5968.000000	16.920794
5966.000000	16.953902
5964.000000	16.986906
5962.000000	17.019859
5960.000000	17.053074
5958.000000	17.086511
5956.000000	17.119859
5954.000000	17.153006
5952.000000	17.186148
5950.000000	17.219355
5948.000000	17.252459
5946.000000	17.286306
5944.000000	17.319093
5942.000000	17.352210
5940.000000	17.385076
5938.000000	17.417570
5936.000000	17.449878
5934.000000	17.482899
5932.000000	17.516362
5930.000000	17.551160
5928.000000	17.583411
5926.000000	17.616450
5924.000000	17.650227
5922.000000	17.685558
5920.000000	17.719987
5918.000000	17.754176
5916.000000	17.788703
5914.000000	17.824686
5912.000000	17.860351
5910.000000	17.896492
5908.000000	17.931813
5906.000000	17.966764
5904.000000	18.001980
5902.000000	18.038498
5900.000000	18.075386
5898.000000	18.111185
5896.000000	18.146655
5894.000000	18.182285
5892.000000	18.217113
5890.000000	18.252397
5888.000000	18.286945
5886.000000	18.322202
5884.000000	18.356127
5882.000000	18.390520
5880.000000	18.425360
5878.000000	18.461379
5876.000000	18.496675
5874.000000	18.532309
5872.000000	18.568503
5870.000000	18.605098
5868.000000	18.641451
5866.000000	18.677368
5864.000000	18.712640
5862.000000	18.749116
5860.000000	18.784807
5858.000000	18.821183
5856.000000	18.857770
5854.000000	18.895550
5852.000000	18.932717
5850.000000	18.970753
5848.000000	19.008952
5846.000000	19.048251
5844.000000	19.086721
5842.000000	19.125921
5840.000000	19.166486
5838.000000	19.208171
5836.000000	19.249267
5834.000000	19.289363
5832.000000	19.329060
5830.000000	19.370046
5828.000000	19.411055
5826.000000	19.451211
5824.000000	19.490181
5822.000000	19.529363
5820.000000	19.569652
5818.000000	19.611180
5816.000000	19.652039
5814.000000	19.691853
5812.000000	19.730895
5810.000000	19.770128
5808.000000	19.809608
5806.000000	19.849472
5804.000000	19.889095
5802.000000	19.928151
5800.000000	19.966636
5798.000000	20.007265
5796.000000	20.048446
5794.000000	20.089047
5792.000000	20.127535
5790.000000	20.167014
5788.000000	20.207394
5786.000000	20.248109
5784.000000	20.288528
5782.000000	20.329915
5780.000000	20.370516
5778.000000	20.411452
5776.000000	20.451768
5774.000000	20.492644
5772.000000	20.531711
5770.000000	20.572045
5768.000000	20.613923
5766.000000	20.656892
5764.000000	20.698089
5762.000000	20.739039
5760.000000	20.779206
5758.000000	20.820362
5756.000000	20.859883
5754.000000	20.900004
5752.000000	20.939837
5750.000000	20.980721
5748.000000	21.022436
5746.000000	21.063924
5744.000000	21.102930
5742.000000	21.141603
5740.000000	21.180785
5738.000000	21.221680
5736.000000	21.261785
5734.000000	21.301184
5732.000000	21.339672
5730.000000	21.378204
5728.000000	21.417915
5726.000000	21.459855
5724.000000	21.501757
5722.000000	21.543287
5720.000000	21.583526
5718.000000	21.625445
5716.000000	21.667292
5714.000000	21.709458
5712.000000	21.751128
5710.000000	21.793924
5708.000000	21.836519
5706.000000	21.879922
5704.000000	21.922760
5702.000000	21.966596
5700.000000	22.009052
5698.000000	22.051437
5696.000000	22.094942
5694.000000	22.139431
5692.000000	22.183608
5690.000000	22.228395
5688.000000	22.272618
5686.000000	22.317717
5684.000000	22.362017
5682.000000	22.407104
5680.000000	22.451113
5678.000000	22.495355
5676.000000	22.539359
5674.000000	22.585366
5672.000000	22.629749
5670.000000	22.673539
5668.000000	22.717381
5666.000000	22.762370
5664.000000	22.806499
5662.000000	22.850660
5660.000000	22.894793
5658.000000	22.940129
5656.000000	22.984713
5654.000000	23.029121
5652.000000	23.073805
5650.000000	23.118063
5648.000000	23.161779
5646.000000	23.206295
5644.000000	23.250726
5642.000000	23.295865
5640.000000	23.340215
5638.000000	23.385228
5636.000000	23.429577
5634.000000	23.473613
5632.000000	23.516754
5630.000000	23.560479
5628.000000	23.604419
5626.000000	23.649151
5624.000000	23.693649
5622.000000	23.738691
5620.000000	23.783922
5618.000000	23.829190
5616.000000	23.873106
5614.000000	23.917074
5612.000000	23.960715
5610.000000	24.005555
5608.000000	24.049845
5606.000000	24.094784
5604.000000	24.138548
5602.000000	24.183866
5600.000000	24.229184
5598.000000	24.275681
5596.000000	24.321638
5594.000000	24.367537
5592.000000	24.412614
5590.000000	24.458342
5588.000000	24.504757
5586.000000	24.551466
5584.000000	24.596594
5582.000000	24.641352
5580.000000	24.686979
5578.000000	24.733676
5576.000000	24.779991
5574.000000	24.826352
5572.000000	24.872902
5570.000000	24.919844
5568.000000	24.966248
5566.000000	25.013796
5564.000000	25.061414
5562.000000	25.109025
5560.000000	25.154867
5558.000000	25.200973
5556.000000	25.246481
5554.000000	25.292904
5552.000000	25.338759
5550.000000	25.385412
5548.000000	25.432131
5546.000000	25.479653
5544.000000	25.526741
5542.000000	25.572710
5540.000000	25.616756
5538.000000	25.662148
5536.000000	25.708997
5534.000000	25.757521
5532.000000	25.805448
5530.000000	25.852602
5528.000000	25.899196
5526.000000	25.944536
5524.000000	25.988556
5522.000000	26.033330
5520.000000	26.078310
5518.000000	26.125205
5516.000000	26.173793
5514.000000	26.223885
5512.000000	26.270627
5510.000000	26.314194
5508.000000	26.357908
5506.000000	26.405662
5504.000000	26.455156
5502.000000	26.503843
5500.000000	26.551189
5498.000000	26.596199
5496.000000	26.635504
5494.000000	26.674627
5492.000000	26.718067
5490.000000	26.769928
5488.000000	26.824803
5486.000000	26.879690
5484.000000	26.933268
5482.000000	26.984593
5480.000000	27.027551
5478.000000	27.062723
5476.000000	27.101746
5474.000000	27.153149
5472.000000	27.208801
5470.000000	27.258873
5468.000000	27.305214
5466.000000	27.351703
5464.000000	27.395328
5462.000000	27.440499
5460.000000	27.491000
5458.000000	27.546962
5456.000000	27.602687
5454.000000	27.653029
5452.000000	27.695448
5450.000000	27.731675
5448.000000	27.768540
5446.000000	27.810957
5444.000000	27.857344
5442.000000	27.912908
5440.000000	27.969201
5438.000000	28.018275
5436.000000	28.062491
5434.000000	28.107686
5432.000000	28.150604
5430.000000	28.193899
5428.000000	28.246811
5426.000000	28.313073
5424.000000	28.376896
5422.000000	28.433139
5420.000000	28.480641
5418.000000	28.514038
5416.000000	28.535771
5414.000000	28.563719
5412.000000	28.610453
5410.000000	28.676360
5408.000000	28.744285
5406.000000	28.806193
5404.000000	28.860837
5402.000000	28.912309
5400.000000	28.956981
5398.000000	28.990837
5396.000000	29.022795
5394.000000	29.070825
5392.000000	29.132723
5390.000000	29.192174
5388.000000	29.237615
5386.000000	29.283739
5384.000000	29.339219
5382.000000	29.395514
5380.000000	29.434978
5378.000000	29.469537
5376.000000	29.517109
5374.000000	29.582641
5372.000000	29.649595
5370.000000	29.707390
5368.000000	29.755810
5366.000000	29.800928
5364.000000	29.848894
5362.000000	29.903305
5360.000000	29.957801
5358.000000	29.999705
5356.000000	30.028719
5354.000000	30.065515
5352.000000	30.117545
5350.000000	30.173626
5348.000000	30.211929
5346.000000	30.247243
5344.000000	30.294941
5342.000000	30.346870
5340.000000	30.394626
5338.000000	30.447048
5336.000000	30.512192
5334.000000	30.579303
5332.000000	30.633495
5330.000000	30.678074
5328.000000	30.725114
5326.000000	30.781970
5324.000000	30.845234
5322.000000	30.902738
5320.000000	30.952162
5318.000000	30.999032
5316.000000	31.047305
5314.000000	31.098859
5312.000000	31.146826
5310.000000	31.189058
5308.000000	31.232787
5306.000000	31.286301
5304.000000	31.343375
5302.000000	31.396657
5300.000000	31.447398
5298.000000	31.500904
5296.000000	31.553422
5294.000000	31.597645
5292.000000	31.636840
5290.000000	31.682862
5288.000000	31.737586
5286.000000	31.795641
5284.000000	31.850013
5282.000000	31.904370
5280.000000	31.959323
5278.000000	32.015274
5276.000000	32.069010
5274.000000	32.119563
5272.000000	32.166277
5270.000000	32.211381
5268.000000	32.248930
5266.000000	32.282395
5264.000000	32.325154
5262.000000	32.387105
5260.000000	32.455472
5258.000000	32.510086
5256.000000	32.556023
5254.000000	32.606838
5252.000000	32.656173
5250.000000	32.697342
5248.000000	32.736931
5246.000000	32.790066
5244.000000	32.856252
5242.000000	32.925337
5240.000000	32.988533
5238.000000	33.041611
5236.000000	33.088171
5234.000000	33.133819
5232.000000	33.181076
5230.000000	33.228139
5228.000000	33.269192
5226.000000	33.314156
5224.000000	33.370548
5222.000000	33.434154
5220.000000	33.492045
5218.000000	33.546726
5216.000000	33.602109
5214.000000	33.655182
5212.000000	33.696689
5210.000000	33.726469
5208.000000	33.759577
5206.000000	33.816149
5204.000000	33.889420
5202.000000	33.958613
5200.000000	34.011923
5198.000000	34.061933
5196.000000	34.117245
5194.000000	34.176633
5192.000000	34.231800
5190.000000	34.281972
5188.000000	34.329372
5186.000000	34.379877
5184.000000	34.434729
5182.000000	34.493372
5180.000000	34.551071
5178.000000	34.607525
5176.000000	34.662367
5174.000000	34.715368
5172.000000	34.766714
5170.000000	34.820365
5168.000000	34.874184
5166.000000	34.926897
5164.000000	34.979230
5162.000000	35.034592
5160.000000	35.089078
5158.000000	35.142253
5156.000000	35.196164
5154.000000	35.252637
5152.000000	35.309110
5150.000000	35.365367
5148.000000	35.419946
5146.000000	35.472188
5144.000000	35.522208
5142.000000	35.574891
5140.000000	35.630238
5138.000000	35.686091
5136.000000	35.739729
5134.000000	35.793341
5132.000000	35.846492
5130.000000	35.899669
5128.000000	35.952297
5126.000000	36.006812
5124.000000	36.060971
5122.000000	36.114528
5120.000000	36.166162
5118.000000	36.218955
5116.000000	36.272613
5114.000000	36.327486
5112.000000	36.381470
5110.000000	36.436012
5108.000000	36.490666
5106.000000	36.546176
5104.000000	36.600931
5102.000000	36.656548
5100.000000	36.711629
5098.000000	36.766844
5096.000000	36.820961
5094.000000	36.876367
5092.000000	36.932492
5090.000000	36.989230
5088.000000	37.045319
5086.000000	37.101488
5084.000000	37.157490
5082.000000	37.213962
5080.000000	37.269900
5078.000000	37.326547
5076.000000	37.382160
5074.000000	37.438282
5072.000000	37.494175
5070.000000	37.550839
5068.000000	37.605901
5066.000000	37.661960
5064.000000	37.718063
5062.000000	37.773994
5060.000000	37.828566
5058.000000	37.884851
5056.000000	37.941321
5054.000000	37.997302
5052.000000	38.051871
5050.000000	38.107396
5048.000000	38.162929
5046.000000	38.219032
5044.000000	38.275002
5042.000000	38.331934
5040.000000	38.387819
5038.000000	38.443420
5036.000000	38.498399
5034.000000	38.553696
5032.000000	38.607691
5030.000000	38.662288
5028.000000	38.717329
5026.000000	38.773268
5024.000000	38.829948
5022.000000	38.886640
5020.000000	38.941527
5018.000000	38.996282
5016.000000	39.051715
5014.000000	39.108349
5012.000000	39.164661
5010.000000	39.220865
5008.000000	39.276225
5006.000000	39.332481
5004.000000	39.389851
5002.000000	39.448468
5000.000000	39.505821
4998.000000	39.563286
4996.000000	39.619884
4994.000000	39.677924
4992.000000	39.735909
4990.000000	39.794858
4988.000000	39.852684
4986.000000	39.910349
4984.000000	39.967349
4982.000000	40.025747
4980.000000	40.083964
4978.000000	40.141806
4976.000000	40.197972
4974.000000	40.254914
4972.000000	40.312191
4970.000000	40.370108
4968.000000	40.427409
4966.000000	40.485249
4964.000000	40.542304
4962.000000	40.599539
4960.000000	40.655558
4958.000000	40.712213
4956.000000	40.767858
4954.000000	40.824735
4952.000000	40.881683
4950.000000	40.939081
4948.000000	40.995994
4946.000000	41.053712
4944.000000	41.110566
4942.000000	41.166928
4940.000000	41.222129
4938.000000	41.278050
4936.000000	41.334226
4934.000000	41.391361
4932.000000	41.447409
4930.000000	41.503754
4928.000000	41.559622
4926.000000	41.616779
4924.000000	41.673896
4922.000000	41.730614
4920.000000	41.785986
4918.000000	41.843836
4916.000000	41.902519
4914.000000	41.960615
4912.000000	42.017151
4910.000000	42.074960
4908.000000	42.132496
4906.000000	42.190939
4904.000000	42.248764
4902.000000	42.306837
4900.000000	42.364777
4898.000000	42.424032
4896.000000	42.482722
4894.000000	42.541908
4892.000000	42.601011
4890.000000	42.660839
4888.000000	42.719798
4886.000000	42.779037
4884.000000	42.837900
4882.000000	42.897678
4880.000000	42.956255
4878.000000	43.014242
4876.000000	43.072559
4874.000000	43.131786
4872.000000	43.190287
4870.000000	43.249354
4868.000000	43.307831
4866.000000	43.366670
4864.000000	43.424338
4862.000000	43.481626
4860.000000	43.537886
4858.000000	43.596459
4856.000000	43.654461
4854.000000	43.711728
4852.000000	43.769082
4850.000000	43.827784
4848.000000	43.885011
4846.000000	43.942304
4844.000000	43.999781
4842.000000	44.057734
4840.000000	44.115076
4838.000000	44.172617
4836.000000	44.229119
4834.000000	44.286782
4832.000000	44.344184
4830.000000	44.401027
4828.000000	44.457497
4826.000000	44.515873
4824.000000	44.573852
4822.000000	44.632410
4820.000000	44.691259
4818.000000	44.750192
4816.000000	44.807807
4814.000000	44.866297
4812.000000	44.925283
4810.000000	44.985665
4808.000000	45.044981
4806.000000	45.103814
4804.000000	45.161720
4802.000000	45.221133
4800.000000	45.280866
4798.000000	45.342226
4796.000000	45.402810
4794.000000	45.463241
4792.000000	45.523099
4790.000000	45.584098
4788.000000	45.643799
4786.000000	45.703932
4784.000000	45.763229
4782.000000	45.822728
4780.000000	45.881259
4778.000000	45.941547
4776.000000	46.001962
4774.000000	46.062837
4772.000000	46.122022
4770.000000	46.180709
4768.000000	46.239702
4766.000000	46.300009
4764.000000	46.358830
4762.000000	46.416982
4760.000000	46.475364
4758.000000	46.534186
4756.000000	46.592169
4754.000000	46.650245
4752.000000	46.707925
4750.000000	46.766448
4748.000000	46.825529
4746.000000	46.884199
4744.000000	46.941135
4742.000000	46.998363
4740.000000	47.056043
4738.000000	47.115395
4736.000000	47.174456
4734.000000	47.232375
4732.000000	47.289314
4730.000000	47.348044
4728.000000	47.406212
4726.000000	47.464786
4724.000000	47.524805
4722.000000	47.586133
4720.000000	47.645543
4718.000000	47.705344
4716.000000	47.765757
4714.000000	47.827036
4712.000000	47.888060
4710.000000	47.951073
4708.000000	48.014473
4706.000000	48.077805
4704.000000	48.140149
4702.000000	48.203542
4700.000000	48.266436
4698.000000	48.329035
4696.000000	48.389960
4694.000000	48.450884
4692.000000	48.511774
4690.000000	48.573453
4688.000000	48.634363
4686.000000	48.695994
4684.000000	48.756986
4682.000000	48.818365
4680.000000	48.879340
4678.000000	48.940826
4676.000000	49.001462
4674.000000	49.063469
4672.000000	49.124686
4670.000000	49.185899
4668.000000	49.246545
4666.000000	49.308304
4664.000000	49.369237
4662.000000	49.430352
4660.000000	49.491037
4658.000000	49.552576
4656.000000	49.613222
4654.000000	49.674255
4652.000000	49.735237
4650.000000	49.796217
4648.000000	49.855944
4646.000000	49.917175
4644.000000	49.979054
4642.000000	50.041049
4640.000000	50.102324
4638.000000	50.164774
4636.000000	50.225524
4634.000000	50.285074
4632.000000	50.344389
4630.000000	50.405549
4628.000000	50.466574
4626.000000	50.528554
4624.000000	50.589505
4622.000000	50.650776
4620.000000	50.712299
4618.000000	50.775146
4616.000000	50.837896
4614.000000	50.902084
4612.000000	50.966648
4610.000000	51.031812
4608.000000	51.094871
4606.000000	51.157686
4604.000000	51.221398
4602.000000	51.287230
4600.000000	51.352677
4598.000000	51.418558
4596.000000	51.483367
4594.000000	51.548107
4592.000000	51.612615
4590.000000	51.678270
4588.000000	51.742409
4586.000000	51.806348
4584.000000	51.870314
4582.000000	51.934800
4580.000000	51.998335
4578.000000	52.062848
4576.000000	52.126510
4574.000000	52.190226
4572.000000	52.253594
4570.000000	52.317504
4568.000000	52.380132
4566.000000	52.443449
4564.000000	52.506637
4562.000000	52.570927
4560.000000	52.634254
4558.000000	52.696898
4556.000000	52.758348
4554.000000	52.821374
4552.000000	52.884290
4550.000000	52.947186
4548.000000	53.009118
4546.000000	53.071585
4544.000000	53.133580
4542.000000	53.196759
4540.000000	53.259754
4538.000000	53.323564
4536.000000	53.386129
4534.000000	53.448465
4532.000000	53.510252
4530.000000	53.573668
4528.000000	53.637188
4526.000000	53.701328
4524.000000	53.764682
4522.000000	53.828787
4520.000000	53.892248
4518.000000	53.956120
4516.000000	54.020395
4514.000000	54.085395
4512.000000	54.149240
4510.000000	54.214029
4508.000000	54.279408
4506.000000	54.345900
4504.000000	54.411675
4502.000000	54.476936
4500.000000	54.541900
4498.000000	54.608795
4496.000000	54.675147
4494.000000	54.740912
4492.000000	54.804632
4490.000000	54.869066
4488.000000	54.934615
4486.000000	55.000937
4484.000000	55.064665
4482.000000	55.128764
4480.000000	55.194074
4478.000000	55.259660
4476.000000	55.322478
4474.000000	55.385354
4472.000000	55.448911
4470.000000	55.513210
4468.000000	55.576457
4466.000000	55.639223
4464.000000	55.700659
4462.000000	55.762752
4460.000000	55.824433
4458.000000	55.886392
4456.000000	55.948337
4454.000000	56.011126
4452.000000	56.072789
4450.000000	56.134988
4448.000000	56.197603
4446.000000	56.261120
4444.000000	56.322970
4442.000000	56.384872
4440.000000	56.446993
4438.000000	56.510700
4436.000000	56.573622
4434.000000	56.636531
4432.000000	56.698818
4430.000000	56.762549
4428.000000	56.826354
4426.000000	56.890617
4424.000000	56.953615
4422.000000	57.016639
4420.000000	57.079418
4418.000000	57.143789
4416.000000	57.208022
4414.000000	57.272053
4412.000000	57.335161
4410.000000	57.399600
4408.000000	57.464510
4406.000000	57.530024
4404.000000	57.594539
4402.000000	57.659216
4400.000000	57.723753
4398.000000	57.789034
4396.000000	57.852522
4394.000000	57.915525
4392.000000	57.978750
4390.000000	58.042034
4388.000000	58.103175
4386.000000	58.164790
4384.000000	58.226342
4382.000000	58.287736
4380.000000	58.348132
4378.000000	58.409479
4376.000000	58.470571
4374.000000	58.531904
4372.000000	58.592244
4370.000000	58.652548
4368.000000	58.711739
4366.000000	58.771667
4364.000000	58.832022
4362.000000	58.893325
4360.000000	58.954258
4358.000000	59.016529
4356.000000	59.078473
4354.000000	59.141094
4352.000000	59.204067
4350.000000	59.268317
4348.000000	59.331873
4346.000000	59.395262
4344.000000	59.457572
4342.000000	59.520706
4340.000000	59.583767
4338.000000	59.647805
4336.000000	59.711223
4334.000000	59.774815
4332.000000	59.838323
4330.000000	59.903336
4328.000000	59.967956
4326.000000	60.033134
4324.000000	60.098469
4322.000000	60.165147
4320.000000	60.231697
4318.000000	60.299515
4316.000000	60.367958
4314.000000	60.436946
4312.000000	60.503810
4310.000000	60.570298
4308.000000	60.637137
4306.000000	60.705261
4304.000000	60.772101
4302.000000	60.838959
4300.000000	60.905103
4298.000000	60.970777
4296.000000	61.035322
4294.000000	61.100347
4292.000000	61.164144
