PE IR       SUBTECH     SPECTRUM    ASCII       PEDS        4.00        
   -1
TE110A_068_80K_AFTER_125K_BG.ASC
20/05/14
14:56:22.00
20/05/14
14:56:22.00
Administrator
TE110A.Thursday, May 14 2020, 016.
1000.000000
#HDR
-1
-1
#GR
cm-1
EGY
1.0
0.0
6000.000000
-2.000000
2501
8
105.091418
11.020361
#DATA
6000.000000	16.272109
5998.000000	16.304303
5996.000000	16.337486
5994.000000	16.370055
5992.000000	16.401703
5990.000000	16.432510
5988.000000	16.463714
5986.000000	16.496458
5984.000000	16.529138
5982.000000	16.561942
5980.000000	16.594160
5978.000000	16.627107
5976.000000	16.658979
5974.000000	16.691109
5972.000000	16.724273
5970.000000	16.758455
5968.000000	16.792176
5966.000000	16.825674
5964.000000	16.858665
5962.000000	16.891541
5960.000000	16.923982
5958.000000	16.957249
5956.000000	16.990658
5954.000000	17.024520
5952.000000	17.056790
5950.000000	17.089944
5948.000000	17.122911
5946.000000	17.156021
5944.000000	17.188687
5942.000000	17.221174
5940.000000	17.253635
5938.000000	17.287415
5936.000000	17.320337
5934.000000	17.353741
5932.000000	17.387288
5930.000000	17.421430
5928.000000	17.455564
5926.000000	17.489461
5924.000000	17.522331
5922.000000	17.556114
5920.000000	17.589179
5918.000000	17.623287
5916.000000	17.658298
5914.000000	17.695034
5912.000000	17.731702
5910.000000	17.767928
5908.000000	17.802133
5906.000000	17.836765
5904.000000	17.872380
5902.000000	17.908960
5900.000000	17.945619
5898.000000	17.982300
5896.000000	18.017821
5894.000000	18.053491
5892.000000	18.087779
5890.000000	18.122025
5888.000000	18.155796
5886.000000	18.190326
5884.000000	18.225213
5882.000000	18.260901
5880.000000	18.296147
5878.000000	18.331620
5876.000000	18.366494
5874.000000	18.401596
5872.000000	18.436408
5870.000000	18.471846
5868.000000	18.507382
5866.000000	18.543980
5864.000000	18.581053
5862.000000	18.618576
5860.000000	18.655216
5858.000000	18.691774
5856.000000	18.727798
5854.000000	18.764588
5852.000000	18.801442
5850.000000	18.839560
5848.000000	18.877909
5846.000000	18.916525
5844.000000	18.954911
5842.000000	18.994667
5840.000000	19.034742
5838.000000	19.075584
5836.000000	19.115655
5834.000000	19.156040
5832.000000	19.195754
5830.000000	19.235467
5828.000000	19.276305
5826.000000	19.317818
5824.000000	19.358728
5822.000000	19.399755
5820.000000	19.439824
5818.000000	19.480841
5816.000000	19.519331
5814.000000	19.557229
5812.000000	19.595630
5810.000000	19.635499
5808.000000	19.675689
5806.000000	19.715323
5804.000000	19.754611
5802.000000	19.795139
5800.000000	19.835820
5798.000000	19.876982
5796.000000	19.916810
5794.000000	19.956744
5792.000000	19.995490
5790.000000	20.034590
5788.000000	20.074121
5786.000000	20.114819
5784.000000	20.156108
5782.000000	20.197582
5780.000000	20.237725
5778.000000	20.278011
5776.000000	20.317934
5774.000000	20.359313
5772.000000	20.400971
5770.000000	20.442971
5768.000000	20.483856
5766.000000	20.524771
5764.000000	20.564779
5762.000000	20.605211
5760.000000	20.645068
5758.000000	20.686025
5756.000000	20.727578
5754.000000	20.769036
5752.000000	20.809461
5750.000000	20.850300
5748.000000	20.890891
5746.000000	20.930933
5744.000000	20.969520
5742.000000	21.008627
5740.000000	21.048769
5738.000000	21.089716
5736.000000	21.129578
5734.000000	21.169706
5732.000000	21.208188
5730.000000	21.246944
5728.000000	21.285953
5726.000000	21.326486
5724.000000	21.366753
5722.000000	21.407054
5720.000000	21.448106
5718.000000	21.492127
5716.000000	21.536361
5714.000000	21.579357
5712.000000	21.620448
5710.000000	21.661277
5708.000000	21.702404
5706.000000	21.745768
5704.000000	21.790298
5702.000000	21.835271
5700.000000	21.878081
5698.000000	21.920682
5696.000000	21.963508
5694.000000	22.007912
5692.000000	22.052497
5690.000000	22.097284
5688.000000	22.141403
5686.000000	22.185178
5684.000000	22.228753
5682.000000	22.272911
5680.000000	22.317266
5678.000000	22.362233
5676.000000	22.407239
5674.000000	22.452480
5672.000000	22.496768
5670.000000	22.541245
5668.000000	22.585032
5666.000000	22.629397
5664.000000	22.673971
5662.000000	22.719024
5660.000000	22.763605
5658.000000	22.807368
5656.000000	22.850607
5654.000000	22.895431
5652.000000	22.940164
5650.000000	22.985616
5648.000000	23.029761
5646.000000	23.074095
5644.000000	23.118259
5642.000000	23.163184
5640.000000	23.207869
5638.000000	23.253143
5636.000000	23.296977
5634.000000	23.341913
5632.000000	23.386475
5630.000000	23.430974
5628.000000	23.475009
5626.000000	23.518521
5624.000000	23.562178
5622.000000	23.606576
5620.000000	23.650782
5618.000000	23.695255
5616.000000	23.738872
5614.000000	23.783311
5612.000000	23.828062
5610.000000	23.873835
5608.000000	23.917950
5606.000000	23.962182
5604.000000	24.006888
5602.000000	24.053525
5600.000000	24.100376
5598.000000	24.146271
5596.000000	24.190964
5594.000000	24.235943
5592.000000	24.280453
5590.000000	24.326604
5588.000000	24.372515
5586.000000	24.419230
5584.000000	24.464581
5582.000000	24.510432
5580.000000	24.555899
5578.000000	24.602582
5576.000000	24.648790
5574.000000	24.695073
5572.000000	24.740872
5570.000000	24.787383
5568.000000	24.834476
5566.000000	24.882292
5564.000000	24.929695
5562.000000	24.976471
5560.000000	25.021603
5558.000000	25.068083
5556.000000	25.114744
5554.000000	25.161393
5552.000000	25.207303
5550.000000	25.254541
5548.000000	25.302311
5546.000000	25.350529
5544.000000	25.397364
5542.000000	25.444051
5540.000000	25.489294
5538.000000	25.534013
5536.000000	25.579118
5534.000000	25.626770
5532.000000	25.674894
5530.000000	25.722319
5528.000000	25.768143
5526.000000	25.813459
5524.000000	25.857851
5522.000000	25.903098
5520.000000	25.949088
5518.000000	25.996750
5516.000000	26.044826
5514.000000	26.093188
5512.000000	26.138677
5510.000000	26.182615
5508.000000	26.226780
5506.000000	26.275026
5504.000000	26.324485
5502.000000	26.373727
5500.000000	26.420794
5498.000000	26.464907
5496.000000	26.505570
5494.000000	26.547053
5492.000000	26.591572
5490.000000	26.642140
5488.000000	26.695429
5486.000000	26.750657
5484.000000	26.804797
5482.000000	26.855736
5480.000000	26.896851
5478.000000	26.930468
5476.000000	26.969977
5474.000000	27.023152
5472.000000	27.081185
5470.000000	27.133104
5468.000000	27.179245
5466.000000	27.225076
5464.000000	27.267961
5462.000000	27.312206
5460.000000	27.361957
5458.000000	27.418395
5456.000000	27.474957
5454.000000	27.525384
5452.000000	27.567698
5450.000000	27.604703
5448.000000	27.640976
5446.000000	27.683129
5444.000000	27.729201
5442.000000	27.783966
5440.000000	27.839093
5438.000000	27.887970
5436.000000	27.932578
5434.000000	27.978458
5432.000000	28.022551
5430.000000	28.066318
5428.000000	28.118740
5426.000000	28.184533
5424.000000	28.249676
5422.000000	28.305896
5420.000000	28.353478
5418.000000	28.387553
5416.000000	28.410885
5414.000000	28.439384
5412.000000	28.485456
5410.000000	28.550169
5408.000000	28.618313
5406.000000	28.681584
5404.000000	28.736760
5402.000000	28.787361
5400.000000	28.831846
5398.000000	28.867443
5396.000000	28.899320
5394.000000	28.944941
5392.000000	29.005756
5390.000000	29.066396
5388.000000	29.112208
5386.000000	29.156742
5384.000000	29.212484
5382.000000	29.271054
5380.000000	29.313020
5378.000000	29.347805
5376.000000	29.394292
5374.000000	29.459286
5372.000000	29.526079
5370.000000	29.584489
5368.000000	29.632658
5366.000000	29.677822
5364.000000	29.725295
5362.000000	29.778699
5360.000000	29.832240
5358.000000	29.874355
5356.000000	29.904665
5354.000000	29.941483
5352.000000	29.993053
5350.000000	30.048614
5348.000000	30.087035
5346.000000	30.121642
5344.000000	30.169340
5342.000000	30.222290
5340.000000	30.270011
5338.000000	30.321074
5336.000000	30.385108
5334.000000	30.453239
5332.000000	30.508614
5330.000000	30.554788
5328.000000	30.602071
5326.000000	30.658103
5324.000000	30.720511
5322.000000	30.779702
5320.000000	30.831378
5318.000000	30.879229
5316.000000	30.927327
5314.000000	30.978250
5312.000000	31.025378
5310.000000	31.066251
5308.000000	31.110071
5306.000000	31.163669
5304.000000	31.221191
5302.000000	31.275228
5300.000000	31.326479
5298.000000	31.379980
5296.000000	31.431027
5294.000000	31.474333
5292.000000	31.514104
5290.000000	31.561648
5288.000000	31.616463
5286.000000	31.673597
5284.000000	31.727180
5282.000000	31.781176
5280.000000	31.835705
5278.000000	31.891940
5276.000000	31.946914
5274.000000	31.998234
5272.000000	32.044733
5270.000000	32.089429
5268.000000	32.127546
5266.000000	32.162863
5264.000000	32.206229
5262.000000	32.267213
5260.000000	32.333759
5258.000000	32.388005
5256.000000	32.433726
5254.000000	32.483661
5252.000000	32.533451
5250.000000	32.577013
5248.000000	32.618529
5246.000000	32.671787
5244.000000	32.736528
5242.000000	32.804381
5240.000000	32.867070
5238.000000	32.920903
5236.000000	32.968180
5234.000000	33.013088
5232.000000	33.059918
5230.000000	33.106948
5228.000000	33.149300
5226.000000	33.194840
5224.000000	33.250548
5222.000000	33.313534
5220.000000	33.372411
5218.000000	33.428382
5216.000000	33.483718
5214.000000	33.536495
5212.000000	33.579218
5210.000000	33.610362
5208.000000	33.643632
5206.000000	33.698319
5204.000000	33.770681
5202.000000	33.840879
5200.000000	33.895509
5198.000000	33.945209
5196.000000	33.998543
5194.000000	34.056287
5192.000000	34.111486
5190.000000	34.163382
5188.000000	34.211967
5186.000000	34.262801
5184.000000	34.317893
5182.000000	34.376745
5180.000000	34.433049
5178.000000	34.488514
5176.000000	34.542939
5174.000000	34.596464
5172.000000	34.649232
5170.000000	34.704799
5168.000000	34.760071
5166.000000	34.812505
5164.000000	34.863800
5162.000000	34.918171
5160.000000	34.972368
5158.000000	35.025296
5156.000000	35.078898
5154.000000	35.134983
5152.000000	35.190594
5150.000000	35.245397
5148.000000	35.299902
5146.000000	35.353242
5144.000000	35.404207
5142.000000	35.457401
5140.000000	35.512624
5138.000000	35.568588
5136.000000	35.622274
5134.000000	35.675703
5132.000000	35.728663
5130.000000	35.782097
5128.000000	35.835609
5126.000000	35.890187
5124.000000	35.943776
5122.000000	35.997063
5120.000000	36.049400
5118.000000	36.102582
5116.000000	36.155470
5114.000000	36.209580
5112.000000	36.264512
5110.000000	36.320621
5108.000000	36.375107
5106.000000	36.429671
5104.000000	36.484830
5102.000000	36.541262
5100.000000	36.595944
5098.000000	36.650143
5096.000000	36.705050
5094.000000	36.762053
5092.000000	36.818852
5090.000000	36.875508
5088.000000	36.931499
5086.000000	36.987900
5084.000000	37.043868
5082.000000	37.100860
5080.000000	37.157463
5078.000000	37.213571
5076.000000	37.267971
5074.000000	37.322717
5072.000000	37.378567
5070.000000	37.435717
5068.000000	37.491877
5066.000000	37.548107
5064.000000	37.604896
5062.000000	37.662336
5060.000000	37.717592
5058.000000	37.772868
5056.000000	37.828344
5054.000000	37.884984
5052.000000	37.940532
5050.000000	37.996147
5048.000000	38.051580
5046.000000	38.107530
5044.000000	38.162433
5042.000000	38.217182
5040.000000	38.272246
5038.000000	38.329073
5036.000000	38.385016
5034.000000	38.439806
5032.000000	38.494091
5030.000000	38.551447
5028.000000	38.608305
5026.000000	38.663474
5024.000000	38.717057
5022.000000	38.772401
5020.000000	38.828263
5018.000000	38.884855
5016.000000	38.940781
5014.000000	38.996867
5012.000000	39.053130
5010.000000	39.110516
5008.000000	39.166634
5006.000000	39.222755
5004.000000	39.279267
5002.000000	39.335917
5000.000000	39.392563
4998.000000	39.450909
4996.000000	39.509224
4994.000000	39.567042
4992.000000	39.624439
4990.000000	39.683457
4988.000000	39.741867
4986.000000	39.800013
4984.000000	39.857500
4982.000000	39.915999
4980.000000	39.973619
4978.000000	40.030212
4976.000000	40.086918
4974.000000	40.144980
4972.000000	40.202583
4970.000000	40.259871
4968.000000	40.315753
4966.000000	40.372041
4964.000000	40.428690
4962.000000	40.487411
4960.000000	40.545779
4958.000000	40.604293
4956.000000	40.660844
4954.000000	40.717184
4952.000000	40.772777
4950.000000	40.829064
4948.000000	40.885247
4946.000000	40.942752
4944.000000	40.999686
4942.000000	41.057344
4940.000000	41.113828
4938.000000	41.169377
4936.000000	41.224009
4934.000000	41.280929
4932.000000	41.337773
4930.000000	41.395125
4928.000000	41.451900
4926.000000	41.508524
4924.000000	41.564518
4922.000000	41.622646
4920.000000	41.680306
4918.000000	41.737419
4916.000000	41.794023
4914.000000	41.851472
4912.000000	41.908053
4910.000000	41.965448
4908.000000	42.023625
4906.000000	42.082524
4904.000000	42.141307
4902.000000	42.200516
4900.000000	42.258535
4898.000000	42.316687
4896.000000	42.374594
4894.000000	42.433257
4892.000000	42.491522
4890.000000	42.551943
4888.000000	42.612203
4886.000000	42.671462
4884.000000	42.728955
4882.000000	42.788001
4880.000000	42.847592
4878.000000	42.907120
4876.000000	42.965181
4874.000000	43.024293
4872.000000	43.082255
4870.000000	43.139639
4868.000000	43.196344
4866.000000	43.255038
4864.000000	43.314171
4862.000000	43.373431
4860.000000	43.431417
4858.000000	43.489165
4856.000000	43.545574
4854.000000	43.602893
4852.000000	43.660676
4850.000000	43.719152
4848.000000	43.776418
4846.000000	43.834349
4844.000000	43.892230
4842.000000	43.951056
4840.000000	44.008721
4838.000000	44.066145
4836.000000	44.123015
4834.000000	44.179837
4832.000000	44.235828
4830.000000	44.293503
4828.000000	44.351651
4826.000000	44.409825
4824.000000	44.467371
4822.000000	44.526554
4820.000000	44.585566
4818.000000	44.644301
4816.000000	44.701664
4814.000000	44.760543
4812.000000	44.820077
4810.000000	44.880079
4808.000000	44.938681
4806.000000	44.998022
4804.000000	45.057440
4802.000000	45.117107
4800.000000	45.176279
4798.000000	45.237018
4796.000000	45.297130
4794.000000	45.357645
4792.000000	45.418082
4790.000000	45.479636
4788.000000	45.539310
4786.000000	45.598531
4784.000000	45.657794
4782.000000	45.718196
4780.000000	45.776999
4778.000000	45.836604
4776.000000	45.897568
4774.000000	45.959351
4772.000000	46.018531
4770.000000	46.076777
4768.000000	46.134340
4766.000000	46.193399
4764.000000	46.253277
4762.000000	46.313324
4760.000000	46.371452
4758.000000	46.430395
4756.000000	46.489543
4754.000000	46.547558
4752.000000	46.604260
4750.000000	46.663303
4748.000000	46.722131
4746.000000	46.780900
4744.000000	46.838298
4742.000000	46.895825
4740.000000	46.952755
4738.000000	47.011113
4736.000000	47.068399
4734.000000	47.126447
4732.000000	47.185000
4730.000000	47.244596
4728.000000	47.303384
4726.000000	47.362793
4724.000000	47.421529
4722.000000	47.480593
4720.000000	47.539718
4718.000000	47.601377
4716.000000	47.663143
4714.000000	47.725157
4712.000000	47.787003
4710.000000	47.849509
4708.000000	47.910233
4706.000000	47.971595
4704.000000	48.034224
4702.000000	48.099199
4700.000000	48.163713
4698.000000	48.227466
4696.000000	48.288662
4694.000000	48.349488
4692.000000	48.409881
4690.000000	48.471613
4688.000000	48.533126
4686.000000	48.595429
4684.000000	48.656745
4682.000000	48.717686
4680.000000	48.777968
4678.000000	48.838899
4676.000000	48.899220
4674.000000	48.960277
4672.000000	49.022030
4670.000000	49.084615
4668.000000	49.146057
4666.000000	49.207696
4664.000000	49.268733
4662.000000	49.329304
4660.000000	49.388783
4658.000000	49.449923
4656.000000	49.511524
4654.000000	49.573820
4652.000000	49.634537
4650.000000	49.695030
4648.000000	49.755433
4646.000000	49.816996
4644.000000	49.877764
4642.000000	49.939417
4640.000000	50.001067
4638.000000	50.063065
4636.000000	50.123346
4634.000000	50.183107
4632.000000	50.242991
4630.000000	50.304434
4628.000000	50.365613
4626.000000	50.426937
4624.000000	50.487592
4622.000000	50.549593
4620.000000	50.612494
4618.000000	50.675682
4616.000000	50.737694
4614.000000	50.800742
4612.000000	50.864739
4610.000000	50.930115
4608.000000	50.995312
4606.000000	51.060281
4604.000000	51.124497
4602.000000	51.190413
4600.000000	51.256678
4598.000000	51.322092
4596.000000	51.386005
4594.000000	51.450657
4592.000000	51.514261
4590.000000	51.578650
4588.000000	51.643595
4586.000000	51.708220
4584.000000	51.770381
4582.000000	51.832915
4580.000000	51.896576
4578.000000	51.962449
4576.000000	52.027441
4574.000000	52.090854
4572.000000	52.152881
4570.000000	52.217606
4568.000000	52.282207
4566.000000	52.346026
4564.000000	52.408550
4562.000000	52.472125
4560.000000	52.534700
4558.000000	52.598376
4556.000000	52.661128
4554.000000	52.723855
4552.000000	52.786214
4550.000000	52.849658
4548.000000	52.912075
4546.000000	52.975019
4544.000000	53.037430
4542.000000	53.100231
4540.000000	53.162526
4538.000000	53.225958
4536.000000	53.289389
4534.000000	53.353474
4532.000000	53.416434
4530.000000	53.479720
4528.000000	53.542285
4526.000000	53.604705
4524.000000	53.666612
4522.000000	53.731213
4520.000000	53.796141
4518.000000	53.860646
4516.000000	53.925101
4514.000000	53.991215
4512.000000	54.056002
4510.000000	54.121152
4508.000000	54.185817
4506.000000	54.250845
4504.000000	54.316208
4502.000000	54.383144
4500.000000	54.448805
4498.000000	54.513463
4496.000000	54.577322
4494.000000	54.643192
4492.000000	54.708968
4490.000000	54.774825
4488.000000	54.840557
4486.000000	54.906072
4484.000000	54.968759
4482.000000	55.032643
4480.000000	55.098160
4478.000000	55.162773
4476.000000	55.224884
4474.000000	55.289058
4472.000000	55.353574
4470.000000	55.417556
4468.000000	55.480389
4466.000000	55.542844
4464.000000	55.604928
4462.000000	55.667926
4460.000000	55.729897
4458.000000	55.793281
4456.000000	55.856931
4454.000000	55.919066
4452.000000	55.979015
4450.000000	56.040552
4448.000000	56.102803
4446.000000	56.165525
4444.000000	56.227416
4442.000000	56.290751
4440.000000	56.354059
4438.000000	56.416952
4436.000000	56.478736
4434.000000	56.542529
4432.000000	56.606064
4430.000000	56.669370
4428.000000	56.733205
4426.000000	56.798731
4424.000000	56.862647
4422.000000	56.926482
4420.000000	56.989179
4418.000000	57.052379
4416.000000	57.116060
4414.000000	57.180688
4412.000000	57.244582
4410.000000	57.309235
4408.000000	57.373852
4406.000000	57.439060
4404.000000	57.503820
4402.000000	57.568965
4400.000000	57.633060
4398.000000	57.696752
4396.000000	57.759630
4394.000000	57.822997
4392.000000	57.886297
4390.000000	57.950359
4388.000000	58.013119
4386.000000	58.075159
4384.000000	58.136079
4382.000000	58.198074
4380.000000	58.260037
4378.000000	58.321777
4376.000000	58.381066
4374.000000	58.440856
4372.000000	58.501548
4370.000000	58.563635
4368.000000	58.624465
4366.000000	58.684450
4364.000000	58.743873
4362.000000	58.805447
4360.000000	58.866952
4358.000000	58.929299
4356.000000	58.991337
4354.000000	59.054245
4352.000000	59.117686
4350.000000	59.181491
4348.000000	59.243972
4346.000000	59.308225
4344.000000	59.372737
4342.000000	59.436450
4340.000000	59.497804
4338.000000	59.560066
4336.000000	59.623363
4334.000000	59.687668
4332.000000	59.752259
4330.000000	59.818944
4328.000000	59.883833
4326.000000	59.947652
4324.000000	60.012399
4322.000000	60.079613
4320.000000	60.147145
4318.000000	60.215749
4316.000000	60.283350
4314.000000	60.351516
4312.000000	60.419327
4310.000000	60.487022
4308.000000	60.553815
4306.000000	60.620043
4304.000000	60.685381
4302.000000	60.752585
4300.000000	60.819179
4298.000000	60.885673
4296.000000	60.951044
4294.000000	61.015766
4292.000000	61.079164
