PE IR       SUBTECH     SPECTRUM    ASCII       PEDS        4.00        
   -1
TE110A_072_130K_BG.ASC
20/05/14
15:07:00.00
20/05/14
15:07:00.00
Administrator
TE110A.Thursday, May 14 2020, 003.
1000.000000
#HDR
-1
-1
#GR
cm-1
EGY
1.0
0.0
6000.000000
-2.000000
2501
8
105.114303
11.020318
#DATA
6000.000000	16.258381
5998.000000	16.289831
5996.000000	16.321249
5994.000000	16.353732
5992.000000	16.386364
5990.000000	16.418819
5988.000000	16.450184
5986.000000	16.482378
5984.000000	16.514815
5982.000000	16.548444
5980.000000	16.581419
5978.000000	16.613501
5976.000000	16.643865
5974.000000	16.674868
5972.000000	16.707885
5970.000000	16.742311
5968.000000	16.776604
5966.000000	16.810118
5964.000000	16.842170
5962.000000	16.875501
5960.000000	16.908827
5958.000000	16.942732
5956.000000	16.976479
5954.000000	17.010181
5952.000000	17.043695
5950.000000	17.077221
5948.000000	17.109791
5946.000000	17.142378
5944.000000	17.175326
5942.000000	17.208225
5940.000000	17.241828
5938.000000	17.275086
5936.000000	17.307291
5934.000000	17.339783
5932.000000	17.372117
5930.000000	17.405201
5928.000000	17.438226
5926.000000	17.472346
5924.000000	17.506520
5922.000000	17.541567
5920.000000	17.575879
5918.000000	17.610530
5916.000000	17.645364
5914.000000	17.680636
5912.000000	17.715793
5910.000000	17.752244
5908.000000	17.789244
5906.000000	17.826706
5904.000000	17.862212
5902.000000	17.897262
5900.000000	17.931985
5898.000000	17.967944
5896.000000	18.003818
5894.000000	18.039323
5892.000000	18.073760
5890.000000	18.107632
5888.000000	18.142199
5886.000000	18.177767
5884.000000	18.213298
5882.000000	18.248349
5880.000000	18.283014
5878.000000	18.317935
5876.000000	18.352349
5874.000000	18.387474
5872.000000	18.422688
5870.000000	18.459142
5868.000000	18.496243
5866.000000	18.534360
5864.000000	18.571384
5862.000000	18.607231
5860.000000	18.641996
5858.000000	18.678996
5856.000000	18.715878
5854.000000	18.753253
5852.000000	18.790422
5850.000000	18.828975
5848.000000	18.867163
5846.000000	18.905567
5844.000000	18.943880
5842.000000	18.983876
5840.000000	19.023561
5838.000000	19.062612
5836.000000	19.101819
5834.000000	19.143246
5832.000000	19.184850
5830.000000	19.226314
5828.000000	19.266695
5826.000000	19.307547
5824.000000	19.347432
5822.000000	19.387710
5820.000000	19.426819
5818.000000	19.467147
5816.000000	19.506861
5814.000000	19.546820
5812.000000	19.586135
5810.000000	19.625920
5808.000000	19.664833
5806.000000	19.704452
5804.000000	19.743438
5802.000000	19.783031
5800.000000	19.823229
5798.000000	19.863383
5796.000000	19.902866
5794.000000	19.942728
5792.000000	19.983545
5790.000000	20.025017
5788.000000	20.065060
5786.000000	20.104798
5784.000000	20.144342
5782.000000	20.185705
5780.000000	20.225809
5778.000000	20.266282
5776.000000	20.307060
5774.000000	20.348952
5772.000000	20.389906
5770.000000	20.430036
5768.000000	20.469726
5766.000000	20.510755
5764.000000	20.552180
5762.000000	20.594167
5760.000000	20.635522
5758.000000	20.676484
5756.000000	20.717048
5754.000000	20.757888
5752.000000	20.798268
5750.000000	20.838135
5748.000000	20.876937
5746.000000	20.917128
5744.000000	20.957313
5742.000000	20.998387
5740.000000	21.038256
5738.000000	21.078299
5736.000000	21.117919
5734.000000	21.158032
5732.000000	21.197641
5730.000000	21.237399
5728.000000	21.277323
5726.000000	21.318157
5724.000000	21.357917
5722.000000	21.398421
5720.000000	21.439447
5718.000000	21.482907
5716.000000	21.525926
5714.000000	21.568842
5712.000000	21.610938
5710.000000	21.653388
5708.000000	21.695593
5706.000000	21.738476
5704.000000	21.781392
5702.000000	21.824497
5700.000000	21.866942
5698.000000	21.910456
5696.000000	21.954186
5694.000000	21.999261
5692.000000	22.043782
5690.000000	22.088303
5688.000000	22.132669
5686.000000	22.177588
5684.000000	22.221968
5682.000000	22.266176
5680.000000	22.309743
5678.000000	22.354457
5676.000000	22.398308
5674.000000	22.442687
5672.000000	22.486962
5670.000000	22.531574
5668.000000	22.575995
5666.000000	22.620440
5664.000000	22.665003
5662.000000	22.710322
5660.000000	22.755252
5658.000000	22.800282
5656.000000	22.843746
5654.000000	22.887632
5652.000000	22.931536
5650.000000	22.976937
5648.000000	23.021954
5646.000000	23.067303
5644.000000	23.111584
5642.000000	23.155978
5640.000000	23.199661
5638.000000	23.243619
5636.000000	23.287750
5634.000000	23.332701
5632.000000	23.377340
5630.000000	23.422102
5628.000000	23.466649
5626.000000	23.512186
5624.000000	23.556049
5622.000000	23.599689
5620.000000	23.643291
5618.000000	23.688127
5616.000000	23.732768
5614.000000	23.777294
5612.000000	23.821608
5610.000000	23.866807
5608.000000	23.911949
5606.000000	23.957486
5604.000000	24.002149
5602.000000	24.046989
5600.000000	24.091137
5598.000000	24.136341
5596.000000	24.181888
5594.000000	24.228682
5592.000000	24.274994
5590.000000	24.320904
5588.000000	24.366660
5586.000000	24.412960
5584.000000	24.458533
5582.000000	24.504208
5580.000000	24.549950
5578.000000	24.596512
5576.000000	24.642678
5574.000000	24.689472
5572.000000	24.736144
5570.000000	24.783116
5568.000000	24.829142
5566.000000	24.876035
5564.000000	24.923197
5562.000000	24.970779
5560.000000	25.017086
5558.000000	25.063247
5556.000000	25.108859
5554.000000	25.155167
5552.000000	25.200593
5550.000000	25.247197
5548.000000	25.294753
5546.000000	25.343816
5544.000000	25.391045
5542.000000	25.437184
5540.000000	25.481594
5538.000000	25.527639
5536.000000	25.574270
5534.000000	25.622290
5532.000000	25.669342
5530.000000	25.715872
5528.000000	25.761714
5526.000000	25.806881
5524.000000	25.852002
5522.000000	25.898359
5520.000000	25.946385
5518.000000	25.995107
5516.000000	26.042514
5514.000000	26.089949
5512.000000	26.134716
5510.000000	26.177561
5508.000000	26.220998
5506.000000	26.269644
5504.000000	26.320782
5502.000000	26.370664
5500.000000	26.417662
5498.000000	26.462023
5496.000000	26.501413
5494.000000	26.541265
5492.000000	26.585242
5490.000000	26.636588
5488.000000	26.691604
5486.000000	26.747968
5484.000000	26.802905
5482.000000	26.853875
5480.000000	26.895953
5478.000000	26.930129
5476.000000	26.969034
5474.000000	27.021194
5472.000000	27.079128
5470.000000	27.131041
5468.000000	27.176993
5466.000000	27.222465
5464.000000	27.265382
5462.000000	27.309982
5460.000000	27.360319
5458.000000	27.417092
5456.000000	27.473657
5454.000000	27.523391
5452.000000	27.565447
5450.000000	27.601104
5448.000000	27.636743
5446.000000	27.679809
5444.000000	27.726623
5442.000000	27.780791
5440.000000	27.834779
5438.000000	27.884099
5436.000000	27.929581
5434.000000	27.975050
5432.000000	28.019450
5430.000000	28.064994
5428.000000	28.118126
5426.000000	28.183048
5424.000000	28.246169
5422.000000	28.302223
5420.000000	28.350990
5418.000000	28.385775
5416.000000	28.408752
5414.000000	28.436673
5412.000000	28.483403
5410.000000	28.548811
5408.000000	28.616718
5406.000000	28.679337
5404.000000	28.733660
5402.000000	28.784154
5400.000000	28.829460
5398.000000	28.865575
5396.000000	28.898141
5394.000000	28.944329
5392.000000	29.005553
5390.000000	29.065030
5388.000000	29.110348
5386.000000	29.156101
5384.000000	29.212161
5382.000000	29.269892
5380.000000	29.310692
5378.000000	29.345514
5376.000000	29.391165
5374.000000	29.455616
5372.000000	29.522794
5370.000000	29.582220
5368.000000	29.631709
5366.000000	29.677302
5364.000000	29.724400
5362.000000	29.777060
5360.000000	29.830853
5358.000000	29.874503
5356.000000	29.905150
5354.000000	29.941187
5352.000000	29.991741
5350.000000	30.047924
5348.000000	30.087149
5346.000000	30.122529
5344.000000	30.169098
5342.000000	30.220369
5340.000000	30.267235
5338.000000	30.319922
5336.000000	30.386398
5334.000000	30.453928
5332.000000	30.507571
5330.000000	30.552191
5328.000000	30.599181
5326.000000	30.655890
5324.000000	30.719103
5322.000000	30.778014
5320.000000	30.828097
5318.000000	30.876342
5316.000000	30.926394
5314.000000	30.979132
5312.000000	31.026823
5310.000000	31.067540
5308.000000	31.110053
5306.000000	31.162231
5304.000000	31.220176
5302.000000	31.275652
5300.000000	31.328341
5298.000000	31.382718
5296.000000	31.434421
5294.000000	31.477599
5292.000000	31.516498
5290.000000	31.562827
5288.000000	31.616973
5286.000000	31.673493
5284.000000	31.726378
5282.000000	31.780504
5280.000000	31.836218
5278.000000	31.893476
5276.000000	31.948713
5274.000000	32.000067
5272.000000	32.046869
5270.000000	32.091758
5268.000000	32.129992
5266.000000	32.165234
5264.000000	32.207991
5262.000000	32.268812
5260.000000	32.335315
5258.000000	32.388485
5256.000000	32.433456
5254.000000	32.484620
5252.000000	32.535588
5250.000000	32.578261
5248.000000	32.619548
5246.000000	32.673496
5244.000000	32.738400
5242.000000	32.804720
5240.000000	32.867503
5238.000000	32.923394
5236.000000	32.972360
5234.000000	33.018078
5232.000000	33.065346
5230.000000	33.113320
5228.000000	33.155323
5226.000000	33.199546
5224.000000	33.255402
5222.000000	33.318274
5220.000000	33.374823
5218.000000	33.427621
5216.000000	33.483508
5214.000000	33.539445
5212.000000	33.583306
5210.000000	33.613813
5208.000000	33.646585
5206.000000	33.702163
5204.000000	33.775046
5202.000000	33.845193
5200.000000	33.899717
5198.000000	33.949413
5196.000000	34.003444
5194.000000	34.062272
5192.000000	34.117668
5190.000000	34.168437
5188.000000	34.215392
5186.000000	34.265513
5184.000000	34.320455
5182.000000	34.379241
5180.000000	34.435643
5178.000000	34.491365
5176.000000	34.547611
5174.000000	34.602380
5172.000000	34.654741
5170.000000	34.708482
5168.000000	34.762865
5166.000000	34.815756
5164.000000	34.867471
5162.000000	34.921319
5160.000000	34.974503
5158.000000	35.027778
5156.000000	35.082496
5154.000000	35.139579
5152.000000	35.195472
5150.000000	35.250403
5148.000000	35.304583
5146.000000	35.357619
5144.000000	35.409095
5142.000000	35.462417
5140.000000	35.517844
5138.000000	35.572924
5136.000000	35.625270
5134.000000	35.678842
5132.000000	35.733744
5130.000000	35.789080
5128.000000	35.842740
5126.000000	35.896724
5124.000000	35.949744
5122.000000	36.002177
5120.000000	36.054230
5118.000000	36.108542
5116.000000	36.163297
5114.000000	36.218036
5112.000000	36.271623
5110.000000	36.326552
5108.000000	36.381335
5106.000000	36.436704
5104.000000	36.491645
5102.000000	36.547050
5100.000000	36.601077
5098.000000	36.655980
5096.000000	36.711278
5094.000000	36.767534
5092.000000	36.823353
5090.000000	36.880790
5088.000000	36.937926
5086.000000	36.994968
5084.000000	37.051491
5082.000000	37.107988
5080.000000	37.162844
5078.000000	37.217901
5076.000000	37.273319
5074.000000	37.330532
5072.000000	37.387576
5070.000000	37.445523
5068.000000	37.500832
5066.000000	37.555438
5064.000000	37.610151
5062.000000	37.667077
5060.000000	37.723135
5058.000000	37.779052
5056.000000	37.834370
5054.000000	37.890488
5052.000000	37.945616
5050.000000	38.000714
5048.000000	38.055360
5046.000000	38.111388
5044.000000	38.167727
5042.000000	38.224443
5040.000000	38.280424
5038.000000	38.336583
5036.000000	38.390744
5034.000000	38.445395
5032.000000	38.501120
5030.000000	38.558572
5028.000000	38.614688
5026.000000	38.670587
5024.000000	38.726128
5022.000000	38.782161
5020.000000	38.837276
5018.000000	38.892954
5016.000000	38.948383
5014.000000	39.005155
5012.000000	39.061216
5010.000000	39.117404
5008.000000	39.173759
5006.000000	39.231367
5004.000000	39.287437
5002.000000	39.343829
5000.000000	39.401036
4998.000000	39.459975
4996.000000	39.517954
4994.000000	39.576611
4992.000000	39.633926
4990.000000	39.690688
4988.000000	39.746870
4986.000000	39.805001
4984.000000	39.863927
4982.000000	39.922953
4980.000000	39.980624
4978.000000	40.038148
4976.000000	40.095302
4974.000000	40.153214
4972.000000	40.210527
4970.000000	40.268390
4968.000000	40.326278
4966.000000	40.384598
4964.000000	40.441569
4962.000000	40.498092
4960.000000	40.553939
4958.000000	40.610742
4956.000000	40.667705
4954.000000	40.725477
4952.000000	40.782557
4950.000000	40.839827
4948.000000	40.896243
4946.000000	40.953081
4944.000000	41.009726
4942.000000	41.066894
4940.000000	41.123294
4938.000000	41.179236
4936.000000	41.234147
4934.000000	41.290060
4932.000000	41.346586
4930.000000	41.404007
4928.000000	41.460311
4926.000000	41.515930
4924.000000	41.571439
4922.000000	41.629098
4920.000000	41.686878
4918.000000	41.744559
4916.000000	41.801574
4914.000000	41.860155
4912.000000	41.917690
4910.000000	41.974631
4908.000000	42.030840
4906.000000	42.089221
4904.000000	42.147759
4902.000000	42.206971
4900.000000	42.265760
4898.000000	42.325176
4896.000000	42.384267
4894.000000	42.443625
4892.000000	42.502290
4890.000000	42.561601
4888.000000	42.620657
4886.000000	42.679297
4884.000000	42.737150
4882.000000	42.796598
4880.000000	42.856081
4878.000000	42.914931
4876.000000	42.973814
4874.000000	43.034354
4872.000000	43.093047
4870.000000	43.150440
4868.000000	43.208230
4866.000000	43.267529
4864.000000	43.325093
4862.000000	43.382831
4860.000000	43.440268
4858.000000	43.497942
4856.000000	43.555043
4854.000000	43.613504
4852.000000	43.672185
4850.000000	43.731060
4848.000000	43.788486
4846.000000	43.846331
4844.000000	43.904183
4842.000000	43.962099
4840.000000	44.018713
4838.000000	44.076661
4836.000000	44.133620
4834.000000	44.190161
4832.000000	44.246957
4830.000000	44.305461
4828.000000	44.362853
4826.000000	44.420469
4824.000000	44.477628
4822.000000	44.535311
4820.000000	44.593335
4818.000000	44.653889
4816.000000	44.713726
4814.000000	44.772118
4812.000000	44.829590
4810.000000	44.888911
4808.000000	44.947670
4806.000000	45.006821
4804.000000	45.066439
4802.000000	45.127712
4800.000000	45.188163
4798.000000	45.249394
4796.000000	45.309658
4794.000000	45.370030
4792.000000	45.429782
4790.000000	45.490903
4788.000000	45.550469
4786.000000	45.609050
4784.000000	45.667480
4782.000000	45.728295
4780.000000	45.788874
4778.000000	45.849079
4776.000000	45.908094
4774.000000	45.968226
4772.000000	46.027829
4770.000000	46.087761
4768.000000	46.147077
4766.000000	46.206562
4764.000000	46.264645
4762.000000	46.323227
4760.000000	46.381395
4758.000000	46.440033
4756.000000	46.497927
4754.000000	46.556457
4752.000000	46.614932
4750.000000	46.674661
4748.000000	46.732811
4746.000000	46.790345
4744.000000	46.847667
4742.000000	46.905837
4740.000000	46.962945
4738.000000	47.020971
4736.000000	47.079377
4734.000000	47.138600
4732.000000	47.196749
4730.000000	47.255223
4728.000000	47.313345
4726.000000	47.372922
4724.000000	47.432435
4722.000000	47.491862
4720.000000	47.551040
4718.000000	47.612602
4716.000000	47.675111
4714.000000	47.736799
4712.000000	47.797022
4710.000000	47.859264
4708.000000	47.922273
4706.000000	47.985695
4704.000000	48.048597
4702.000000	48.112739
4700.000000	48.176289
4698.000000	48.239553
4696.000000	48.300501
4694.000000	48.361035
4692.000000	48.421879
4690.000000	48.483901
4688.000000	48.545303
4686.000000	48.607204
4684.000000	48.668219
4682.000000	48.728543
4680.000000	48.787801
4678.000000	48.848709
4676.000000	48.910492
4674.000000	48.972611
4672.000000	49.033483
4670.000000	49.095400
4668.000000	49.156963
4666.000000	49.218145
4664.000000	49.278998
4662.000000	49.340807
4660.000000	49.401038
4658.000000	49.462277
4656.000000	49.524804
4654.000000	49.587124
4652.000000	49.646290
4650.000000	49.705715
4648.000000	49.765126
4646.000000	49.826334
4644.000000	49.888860
4642.000000	49.952308
4640.000000	50.013262
4638.000000	50.073809
4636.000000	50.133464
4634.000000	50.194256
4632.000000	50.255662
4630.000000	50.317566
4628.000000	50.378029
4626.000000	50.440048
4624.000000	50.502279
4622.000000	50.564827
4620.000000	50.626577
4618.000000	50.688537
4616.000000	50.750093
4614.000000	50.814195
4612.000000	50.879370
4610.000000	50.944654
4608.000000	51.007771
4606.000000	51.071829
4604.000000	51.136837
4602.000000	51.202650
4600.000000	51.267022
4598.000000	51.332257
4596.000000	51.397088
4594.000000	51.462236
4592.000000	51.526537
4590.000000	51.591387
4588.000000	51.655502
4586.000000	51.719744
4584.000000	51.783024
4582.000000	51.847663
4580.000000	51.912568
4578.000000	51.977051
4576.000000	52.039370
4574.000000	52.103007
4572.000000	52.166738
4570.000000	52.230257
4568.000000	52.293172
4566.000000	52.357710
4564.000000	52.421878
4562.000000	52.486160
4560.000000	52.548463
4558.000000	52.610446
4556.000000	52.673143
4554.000000	52.737351
4552.000000	52.799662
4550.000000	52.861262
4548.000000	52.923783
4546.000000	52.989262
4544.000000	53.053608
4542.000000	53.115613
4540.000000	53.175992
4538.000000	53.238256
4536.000000	53.300367
4534.000000	53.363025
4532.000000	53.426139
4530.000000	53.490579
4528.000000	53.553596
4526.000000	53.616519
4524.000000	53.679568
4522.000000	53.744381
4520.000000	53.809573
4518.000000	53.875674
4516.000000	53.939877
4514.000000	54.003717
4512.000000	54.068638
4510.000000	54.134888
4508.000000	54.199474
4506.000000	54.265008
4504.000000	54.331280
4502.000000	54.397283
4500.000000	54.462213
4498.000000	54.528276
4496.000000	54.593591
4494.000000	54.658641
4492.000000	54.723190
4490.000000	54.788284
4488.000000	54.852777
4486.000000	54.918510
4484.000000	54.983598
4482.000000	55.048082
4480.000000	55.111486
4478.000000	55.176362
4476.000000	55.241520
4474.000000	55.306613
4472.000000	55.369837
4470.000000	55.432966
4468.000000	55.495066
4466.000000	55.557559
4464.000000	55.620118
4462.000000	55.682786
4460.000000	55.743771
4458.000000	55.805594
4456.000000	55.868537
4454.000000	55.932756
4452.000000	55.995720
4450.000000	56.059142
4448.000000	56.122237
4446.000000	56.184337
4444.000000	56.244667
4442.000000	56.306787
4440.000000	56.369850
4438.000000	56.433887
4436.000000	56.496513
4434.000000	56.558861
4432.000000	56.620896
4430.000000	56.684171
4428.000000	56.747638
4426.000000	56.812944
4424.000000	56.876424
4422.000000	56.938217
4420.000000	57.000889
4418.000000	57.066683
4416.000000	57.132246
4414.000000	57.197652
4412.000000	57.261951
4410.000000	57.326653
4408.000000	57.390979
4406.000000	57.455247
4404.000000	57.518438
4402.000000	57.582813
4400.000000	57.647745
4398.000000	57.713094
4396.000000	57.777301
4394.000000	57.841242
4392.000000	57.903369
4390.000000	57.964924
4388.000000	58.025561
4386.000000	58.087999
4384.000000	58.151093
4382.000000	58.213716
4380.000000	58.274053
4378.000000	58.334208
4376.000000	58.394509
4374.000000	58.456805
4372.000000	58.517917
4370.000000	58.577841
4368.000000	58.636904
4366.000000	58.696695
4364.000000	58.756417
4362.000000	58.818332
4360.000000	58.880933
4358.000000	58.943418
4356.000000	59.005259
4354.000000	59.068682
4352.000000	59.132189
4350.000000	59.196791
4348.000000	59.261189
4346.000000	59.325185
4344.000000	59.388126
4342.000000	59.451290
4340.000000	59.513710
4338.000000	59.577564
4336.000000	59.641186
4334.000000	59.704838
4332.000000	59.768632
4330.000000	59.833815
4328.000000	59.898841
4326.000000	59.964826
4324.000000	60.030212
4322.000000	60.097360
4320.000000	60.165585
4318.000000	60.233890
4316.000000	60.300769
4314.000000	60.368733
4312.000000	60.436147
4310.000000	60.503776
4308.000000	60.570315
4306.000000	60.636759
4304.000000	60.702824
4302.000000	60.769614
4300.000000	60.835568
4298.000000	60.901735
4296.000000	60.966325
4294.000000	61.031018
4292.000000	61.096086
