PE IR       SUBTECH     SPECTRUM    ASCII       PEDS        4.00        
   -1
TE110A_088_150K_BG.ASC
20/05/14
16:21:37.00
20/05/14
16:21:37.00
Administrator
TE110A.Thursday, May 14 2020, 019.
1000.000000
#HDR
-1
-1
#GR
cm-1
EGY
1.0
0.0
6000.000000
-2.000000
2501
8
105.176045
11.037107
#DATA
6000.000000	16.455519
5998.000000	16.487172
5996.000000	16.519236
5994.000000	16.551705
5992.000000	16.583353
5990.000000	16.615397
5988.000000	16.647682
5986.000000	16.680190
5984.000000	16.712269
5982.000000	16.744939
5980.000000	16.777122
5978.000000	16.810350
5976.000000	16.843224
5974.000000	16.876302
5972.000000	16.909036
5970.000000	16.941079
5968.000000	16.972737
5966.000000	17.006303
5964.000000	17.039837
5962.000000	17.074411
5960.000000	17.107881
5958.000000	17.141342
5956.000000	17.175072
5954.000000	17.209229
5952.000000	17.242780
5950.000000	17.276588
5948.000000	17.309503
5946.000000	17.342080
5944.000000	17.374234
5942.000000	17.407548
5940.000000	17.441230
5938.000000	17.474841
5936.000000	17.506880
5934.000000	17.539267
5932.000000	17.572136
5930.000000	17.606249
5928.000000	17.640869
5926.000000	17.675608
5924.000000	17.709635
5922.000000	17.744141
5920.000000	17.778742
5918.000000	17.814771
5916.000000	17.849821
5914.000000	17.884548
5912.000000	17.918856
5910.000000	17.954652
5908.000000	17.991114
5906.000000	18.026932
5904.000000	18.061613
5902.000000	18.097093
5900.000000	18.133810
5898.000000	18.170825
5896.000000	18.207103
5894.000000	18.242724
5892.000000	18.277313
5890.000000	18.312088
5888.000000	18.346566
5886.000000	18.382256
5884.000000	18.417365
5882.000000	18.452307
5880.000000	18.486953
5878.000000	18.522696
5876.000000	18.558892
5874.000000	18.595593
5872.000000	18.631931
5870.000000	18.667184
5868.000000	18.701479
5866.000000	18.736717
5864.000000	18.772934
5862.000000	18.809834
5860.000000	18.846047
5858.000000	18.883357
5856.000000	18.920766
5854.000000	18.958366
5852.000000	18.995556
5850.000000	19.034147
5848.000000	19.073205
5846.000000	19.111585
5844.000000	19.149524
5842.000000	19.188625
5840.000000	19.228287
5838.000000	19.269205
5836.000000	19.310482
5834.000000	19.352907
5832.000000	19.394362
5830.000000	19.434529
5828.000000	19.473604
5826.000000	19.513685
5824.000000	19.554422
5822.000000	19.595553
5820.000000	19.635573
5818.000000	19.675570
5816.000000	19.714950
5814.000000	19.755022
5812.000000	19.793671
5810.000000	19.833667
5808.000000	19.874214
5806.000000	19.914961
5804.000000	19.955169
5802.000000	19.994747
5800.000000	20.034296
5798.000000	20.073876
5796.000000	20.112622
5794.000000	20.153116
5792.000000	20.193666
5790.000000	20.235497
5788.000000	20.276206
5786.000000	20.316877
5784.000000	20.356741
5782.000000	20.396696
5780.000000	20.436570
5778.000000	20.477383
5776.000000	20.518961
5774.000000	20.561022
5772.000000	20.601668
5770.000000	20.641927
5768.000000	20.681511
5766.000000	20.722255
5764.000000	20.762795
5762.000000	20.804342
5760.000000	20.845561
5758.000000	20.887063
5756.000000	20.927996
5754.000000	20.968776
5752.000000	21.009517
5750.000000	21.051378
5748.000000	21.092372
5746.000000	21.132640
5744.000000	21.171657
5742.000000	21.211433
5740.000000	21.251402
5738.000000	21.291367
5736.000000	21.330723
5734.000000	21.371069
5732.000000	21.411061
5730.000000	21.451246
5728.000000	21.489998
5726.000000	21.528947
5724.000000	21.569016
5722.000000	21.610517
5720.000000	21.652692
5718.000000	21.695111
5716.000000	21.737117
5714.000000	21.780030
5712.000000	21.822421
5710.000000	21.865910
5708.000000	21.908388
5706.000000	21.951536
5704.000000	21.994748
5702.000000	22.038543
5700.000000	22.081902
5698.000000	22.125433
5696.000000	22.168956
5694.000000	22.213493
5692.000000	22.257941
5690.000000	22.303057
5688.000000	22.347097
5686.000000	22.391377
5684.000000	22.435274
5682.000000	22.479931
5680.000000	22.524409
5678.000000	22.569300
5676.000000	22.613905
5674.000000	22.658843
5672.000000	22.702556
5670.000000	22.747179
5668.000000	22.791844
5666.000000	22.837417
5664.000000	22.882193
5662.000000	22.926475
5660.000000	22.970089
5658.000000	23.013994
5656.000000	23.059321
5654.000000	23.105472
5652.000000	23.149531
5650.000000	23.192803
5648.000000	23.236112
5646.000000	23.281960
5644.000000	23.327111
5642.000000	23.371841
5640.000000	23.415986
5638.000000	23.460591
5636.000000	23.504565
5634.000000	23.548534
5632.000000	23.591934
5630.000000	23.637307
5628.000000	23.683215
5626.000000	23.729139
5624.000000	23.772486
5622.000000	23.815690
5620.000000	23.859418
5618.000000	23.904381
5616.000000	23.949181
5614.000000	23.994715
5612.000000	24.039414
5610.000000	24.083959
5608.000000	24.128107
5606.000000	24.173499
5604.000000	24.219200
5602.000000	24.264328
5600.000000	24.308571
5598.000000	24.354159
5596.000000	24.400028
5594.000000	24.446746
5592.000000	24.491995
5590.000000	24.536882
5588.000000	24.581972
5586.000000	24.627922
5584.000000	24.674453
5582.000000	24.721048
5580.000000	24.766872
5578.000000	24.813041
5576.000000	24.858927
5574.000000	24.905742
5572.000000	24.952219
5570.000000	24.999703
5568.000000	25.046582
5566.000000	25.094039
5564.000000	25.140481
5562.000000	25.187393
5560.000000	25.234041
5558.000000	25.281134
5556.000000	25.327588
5554.000000	25.374079
5552.000000	25.419882
5550.000000	25.466480
5548.000000	25.513411
5546.000000	25.560750
5544.000000	25.607227
5542.000000	25.653995
5540.000000	25.699849
5538.000000	25.746489
5536.000000	25.793422
5534.000000	25.842402
5532.000000	25.890647
5530.000000	25.937495
5528.000000	25.982807
5526.000000	26.027738
5524.000000	26.072472
5522.000000	26.118646
5520.000000	26.164451
5518.000000	26.210478
5516.000000	26.256764
5514.000000	26.304923
5512.000000	26.351804
5510.000000	26.396194
5508.000000	26.439515
5506.000000	26.486672
5504.000000	26.537173
5502.000000	26.587937
5500.000000	26.635772
5498.000000	26.680612
5496.000000	26.720650
5494.000000	26.759967
5492.000000	26.803155
5490.000000	26.854518
5488.000000	26.910249
5486.000000	26.965822
5484.000000	27.019257
5482.000000	27.069955
5480.000000	27.112183
5478.000000	27.146970
5476.000000	27.186138
5474.000000	27.238353
5472.000000	27.297372
5470.000000	27.350361
5468.000000	27.396415
5466.000000	27.441064
5464.000000	27.484018
5462.000000	27.529550
5460.000000	27.580418
5458.000000	27.636544
5456.000000	27.691967
5454.000000	27.740664
5452.000000	27.781960
5450.000000	27.818516
5448.000000	27.856373
5446.000000	27.900775
5444.000000	27.947802
5442.000000	28.000510
5440.000000	28.053905
5438.000000	28.102086
5436.000000	28.146870
5434.000000	28.191875
5432.000000	28.236852
5430.000000	28.282793
5428.000000	28.336727
5426.000000	28.402480
5424.000000	28.466474
5422.000000	28.522491
5420.000000	28.570388
5418.000000	28.604815
5416.000000	28.627865
5414.000000	28.655722
5412.000000	28.702778
5410.000000	28.768564
5408.000000	28.835843
5406.000000	28.897262
5404.000000	28.951424
5402.000000	29.002757
5400.000000	29.047677
5398.000000	29.083765
5396.000000	29.116550
5394.000000	29.162604
5392.000000	29.223638
5390.000000	29.284107
5388.000000	29.330722
5386.000000	29.375891
5384.000000	29.431387
5382.000000	29.489364
5380.000000	29.529596
5378.000000	29.563790
5376.000000	29.610672
5374.000000	29.676763
5372.000000	29.744497
5370.000000	29.803114
5368.000000	29.851968
5366.000000	29.897293
5364.000000	29.945560
5362.000000	29.999603
5360.000000	30.052050
5358.000000	30.092664
5356.000000	30.122220
5354.000000	30.159261
5352.000000	30.211372
5350.000000	30.267878
5348.000000	30.306444
5346.000000	30.341206
5344.000000	30.388712
5342.000000	30.441617
5340.000000	30.489056
5338.000000	30.540608
5336.000000	30.605853
5334.000000	30.673705
5332.000000	30.728253
5330.000000	30.772797
5328.000000	30.819123
5326.000000	30.876417
5324.000000	30.940383
5322.000000	30.999143
5320.000000	31.048390
5318.000000	31.095644
5316.000000	31.144577
5314.000000	31.196810
5312.000000	31.244927
5310.000000	31.287124
5308.000000	31.331441
5306.000000	31.384364
5304.000000	31.441107
5302.000000	31.494635
5300.000000	31.546059
5298.000000	31.599218
5296.000000	31.651000
5294.000000	31.695411
5292.000000	31.734658
5290.000000	31.781200
5288.000000	31.835941
5286.000000	31.894607
5284.000000	31.949236
5282.000000	32.003284
5280.000000	32.057195
5278.000000	32.112535
5276.000000	32.168212
5274.000000	32.220777
5272.000000	32.267327
5270.000000	32.310979
5268.000000	32.348604
5266.000000	32.383492
5264.000000	32.426858
5262.000000	32.488473
5260.000000	32.556360
5258.000000	32.610485
5256.000000	32.655326
5254.000000	32.705243
5252.000000	32.755009
5250.000000	32.797515
5248.000000	32.837240
5246.000000	32.889930
5244.000000	32.955842
5242.000000	33.024783
5240.000000	33.087870
5238.000000	33.142060
5236.000000	33.190243
5234.000000	33.235297
5232.000000	33.282116
5230.000000	33.330094
5228.000000	33.373483
5226.000000	33.418897
5224.000000	33.474901
5222.000000	33.538212
5220.000000	33.595333
5218.000000	33.649493
5216.000000	33.705262
5214.000000	33.759215
5212.000000	33.800444
5210.000000	33.830148
5208.000000	33.864057
5206.000000	33.920675
5204.000000	33.993341
5202.000000	34.063006
5200.000000	34.117473
5198.000000	34.168040
5196.000000	34.222067
5194.000000	34.280037
5192.000000	34.335136
5190.000000	34.386433
5188.000000	34.434187
5186.000000	34.484667
5184.000000	34.539426
5182.000000	34.597840
5180.000000	34.654195
5178.000000	34.709988
5176.000000	34.764911
5174.000000	34.818946
5172.000000	34.871890
5170.000000	34.926825
5168.000000	34.980993
5166.000000	35.033320
5164.000000	35.085019
5162.000000	35.139916
5160.000000	35.194427
5158.000000	35.247433
5156.000000	35.300750
5154.000000	35.356365
5152.000000	35.412439
5150.000000	35.468429
5148.000000	35.523665
5146.000000	35.577783
5144.000000	35.629826
5142.000000	35.682831
5140.000000	35.737125
5138.000000	35.792198
5136.000000	35.845365
5134.000000	35.898350
5132.000000	35.951422
5130.000000	36.005794
5128.000000	36.060499
5126.000000	36.116026
5124.000000	36.169049
5122.000000	36.220754
5120.000000	36.272583
5118.000000	36.326799
5116.000000	36.381359
5114.000000	36.436433
5112.000000	36.491162
5110.000000	36.546462
5108.000000	36.601568
5106.000000	36.657011
5104.000000	36.711217
5102.000000	36.765600
5100.000000	36.819902
5098.000000	36.874810
5096.000000	36.929704
5094.000000	36.986093
5092.000000	37.042273
5090.000000	37.099009
5088.000000	37.155109
5086.000000	37.211501
5084.000000	37.267522
5082.000000	37.325277
5080.000000	37.382695
5078.000000	37.438601
5076.000000	37.492912
5074.000000	37.548488
5072.000000	37.605005
5070.000000	37.662282
5068.000000	37.718337
5066.000000	37.774739
5064.000000	37.830601
5062.000000	37.887276
5060.000000	37.943783
5058.000000	38.000422
5056.000000	38.055762
5054.000000	38.111298
5052.000000	38.166330
5050.000000	38.221187
5048.000000	38.275991
5046.000000	38.332734
5044.000000	38.388901
5042.000000	38.444456
5040.000000	38.499738
5038.000000	38.556091
5036.000000	38.611663
5034.000000	38.667757
5032.000000	38.723328
5030.000000	38.778300
5028.000000	38.831721
5026.000000	38.886579
5024.000000	38.941862
5022.000000	38.998467
5020.000000	39.055252
5018.000000	39.111882
5016.000000	39.166173
5014.000000	39.221493
5012.000000	39.277936
5010.000000	39.335565
5008.000000	39.392632
5006.000000	39.450030
5004.000000	39.505850
5002.000000	39.561986
5000.000000	39.619519
4998.000000	39.679159
4996.000000	39.737434
4994.000000	39.794786
4992.000000	39.851582
4990.000000	39.909542
4988.000000	39.967388
4986.000000	40.026273
4984.000000	40.085163
4982.000000	40.144097
4980.000000	40.200997
4978.000000	40.257873
4976.000000	40.314974
4974.000000	40.373308
4972.000000	40.430983
4970.000000	40.488935
4968.000000	40.545572
4966.000000	40.602296
4964.000000	40.658501
4962.000000	40.716081
4960.000000	40.773314
4958.000000	40.830645
4956.000000	40.886544
4954.000000	40.943610
4952.000000	41.000868
4950.000000	41.057423
4948.000000	41.112990
4946.000000	41.170089
4944.000000	41.226436
4942.000000	41.282881
4940.000000	41.339593
4938.000000	41.397565
4936.000000	41.453703
4934.000000	41.509816
4932.000000	41.565743
4930.000000	41.622711
4928.000000	41.679711
4926.000000	41.737631
4924.000000	41.794166
4922.000000	41.850052
4920.000000	41.906302
4918.000000	41.964374
4916.000000	42.021596
4914.000000	42.079205
4912.000000	42.136579
4910.000000	42.194901
4908.000000	42.252523
4906.000000	42.311337
4904.000000	42.369858
4902.000000	42.428865
4900.000000	42.486815
4898.000000	42.544812
4896.000000	42.603260
4894.000000	42.663433
4892.000000	42.723294
4890.000000	42.782283
4888.000000	42.839879
4886.000000	42.898713
4884.000000	42.958615
4882.000000	43.019240
4880.000000	43.077345
4878.000000	43.135332
4876.000000	43.193889
4874.000000	43.253875
4872.000000	43.312096
4870.000000	43.370340
4868.000000	43.428552
4866.000000	43.486983
4864.000000	43.544012
4862.000000	43.602238
4860.000000	43.661612
4858.000000	43.720859
4856.000000	43.778051
4854.000000	43.835547
4852.000000	43.892553
4850.000000	43.950232
4848.000000	44.007015
4846.000000	44.064617
4844.000000	44.122514
4842.000000	44.181660
4840.000000	44.238821
4838.000000	44.295467
4836.000000	44.352539
4834.000000	44.410493
4832.000000	44.467204
4830.000000	44.524738
4828.000000	44.583410
4826.000000	44.642481
4824.000000	44.700127
4822.000000	44.757623
4820.000000	44.815365
4818.000000	44.874247
4816.000000	44.932818
4814.000000	44.991974
4812.000000	45.051266
4810.000000	45.111125
4808.000000	45.169692
4806.000000	45.229488
4804.000000	45.289019
4802.000000	45.348282
4800.000000	45.407123
4798.000000	45.468213
4796.000000	45.528742
4794.000000	45.588881
4792.000000	45.648607
4790.000000	45.710191
4788.000000	45.771651
4786.000000	45.832797
4784.000000	45.891923
4782.000000	45.951147
4780.000000	46.010055
4778.000000	46.070296
4776.000000	46.129386
4774.000000	46.188730
4772.000000	46.247991
4770.000000	46.308732
4768.000000	46.368725
4766.000000	46.428605
4764.000000	46.487028
4762.000000	46.545628
4760.000000	46.603975
4758.000000	46.663037
4756.000000	46.721544
4754.000000	46.780047
4752.000000	46.837258
4750.000000	46.895569
4748.000000	46.953888
4746.000000	47.011537
4744.000000	47.068339
4742.000000	47.126826
4740.000000	47.184867
4738.000000	47.242426
4736.000000	47.299771
4734.000000	47.358612
4732.000000	47.417198
4730.000000	47.476851
4728.000000	47.535636
4726.000000	47.594632
4724.000000	47.653816
4722.000000	47.714865
4720.000000	47.775120
4718.000000	47.835262
4716.000000	47.895378
4714.000000	47.957871
4712.000000	48.020660
4710.000000	48.082591
4708.000000	48.142965
4706.000000	48.205631
4704.000000	48.269017
4702.000000	48.332121
4700.000000	48.394153
4698.000000	48.457629
4696.000000	48.519961
4694.000000	48.581444
4692.000000	48.641923
4690.000000	48.703912
4688.000000	48.765889
4686.000000	48.828586
4684.000000	48.889676
4682.000000	48.950301
4680.000000	49.010993
4678.000000	49.073256
4676.000000	49.134553
4674.000000	49.195522
4672.000000	49.256456
4670.000000	49.318918
4668.000000	49.380811
4666.000000	49.442350
4664.000000	49.502533
4662.000000	49.562780
4660.000000	49.622286
4658.000000	49.683093
4656.000000	49.743742
4654.000000	49.804250
4652.000000	49.864710
4650.000000	49.927244
4648.000000	49.989674
4646.000000	50.051345
4644.000000	50.111197
4642.000000	50.171466
4640.000000	50.231881
4638.000000	50.292909
4636.000000	50.354030
4634.000000	50.416700
4632.000000	50.478115
4630.000000	50.538850
4628.000000	50.599014
4626.000000	50.660076
4624.000000	50.721561
4622.000000	50.784536
4620.000000	50.847122
4618.000000	50.910524
4616.000000	50.973316
4614.000000	51.036145
4612.000000	51.099063
4610.000000	51.163041
4608.000000	51.227001
4606.000000	51.291901
4604.000000	51.356642
4602.000000	51.422318
4600.000000	51.487522
4598.000000	51.552459
4596.000000	51.617048
4594.000000	51.682297
4592.000000	51.746163
4590.000000	51.810972
4588.000000	51.875433
4586.000000	51.939690
4584.000000	52.003612
4582.000000	52.069033
4580.000000	52.132984
4578.000000	52.196848
4576.000000	52.260361
4574.000000	52.324260
4572.000000	52.387443
4570.000000	52.451077
4568.000000	52.514180
4566.000000	52.578661
4564.000000	52.643242
4562.000000	52.707759
4560.000000	52.770253
4558.000000	52.831724
4556.000000	52.892640
4554.000000	52.955585
4552.000000	53.019083
4550.000000	53.083009
4548.000000	53.144789
4546.000000	53.206333
4544.000000	53.268560
4542.000000	53.332400
4540.000000	53.395050
4538.000000	53.457631
4536.000000	53.519726
4534.000000	53.582935
4532.000000	53.646772
4530.000000	53.711562
4528.000000	53.774087
4526.000000	53.835490
4524.000000	53.898448
4522.000000	53.964665
4520.000000	54.029793
4518.000000	54.094083
4516.000000	54.158127
4514.000000	54.222205
4512.000000	54.286045
4510.000000	54.351935
4508.000000	54.417597
4506.000000	54.484119
4504.000000	54.550790
4502.000000	54.617161
4500.000000	54.681801
4498.000000	54.747198
4496.000000	54.812588
4494.000000	54.878376
4492.000000	54.942696
4490.000000	55.007672
4488.000000	55.073420
4486.000000	55.139501
4484.000000	55.203629
4482.000000	55.267544
4480.000000	55.331194
4478.000000	55.395840
4476.000000	55.460442
4474.000000	55.525182
4472.000000	55.587983
4470.000000	55.650637
4468.000000	55.712677
4466.000000	55.775564
4464.000000	55.838669
4462.000000	55.902301
4460.000000	55.963556
4458.000000	56.024722
4456.000000	56.086684
4454.000000	56.149583
4452.000000	56.210875
4450.000000	56.273031
4448.000000	56.336242
4446.000000	56.400696
4444.000000	56.463380
4442.000000	56.525440
4440.000000	56.587589
4438.000000	56.651518
4436.000000	56.714516
4434.000000	56.777102
4432.000000	56.838676
4430.000000	56.901504
4428.000000	56.964685
4426.000000	57.028809
4424.000000	57.092532
4422.000000	57.156312
4420.000000	57.219232
4418.000000	57.284009
4416.000000	57.348805
4414.000000	57.413359
4412.000000	57.477447
4410.000000	57.542299
4408.000000	57.606320
4406.000000	57.671467
4404.000000	57.735973
4402.000000	57.800134
4400.000000	57.863492
4398.000000	57.927837
4396.000000	57.992149
4394.000000	58.057184
4392.000000	58.120072
4390.000000	58.181404
4388.000000	58.241953
4386.000000	58.304621
4384.000000	58.367764
4382.000000	58.430146
4380.000000	58.490291
4378.000000	58.550672
4376.000000	58.610685
4374.000000	58.671032
4372.000000	58.731146
4370.000000	58.791943
4368.000000	58.852047
4366.000000	58.912796
4364.000000	58.973282
4362.000000	59.034454
4360.000000	59.095697
4358.000000	59.158674
4356.000000	59.221418
4354.000000	59.284525
4352.000000	59.347352
4350.000000	59.409870
4348.000000	59.471217
4346.000000	59.535508
4344.000000	59.600437
4342.000000	59.664460
4340.000000	59.727334
4338.000000	59.791265
4336.000000	59.854074
4334.000000	59.917436
4332.000000	59.981872
4330.000000	60.046746
4328.000000	60.109305
4326.000000	60.174100
4324.000000	60.241824
4322.000000	60.310770
4320.000000	60.377979
4318.000000	60.445178
4316.000000	60.511861
4314.000000	60.579456
4312.000000	60.646482
4310.000000	60.713773
4308.000000	60.779968
4306.000000	60.847029
4304.000000	60.913913
4302.000000	60.981215
4300.000000	61.047414
4298.000000	61.113879
4296.000000	61.179389
4294.000000	61.243679
4292.000000	61.305706
