PE IR       SUBTECH     SPECTRUM    ASCII       PEDS        4.00        
   -1
TE110A_039_110K_BG.ASC
20/05/14
13:02:31.00
20/05/14
13:02:31.00
Administrator
TE110A.Thursday, May 14 2020, 008.
1000.000000
#HDR
-1
-1
#GR
cm-1
EGY
1.0
0.0
6000.000000
-2.000000
2501
8
105.412470
11.019935
#DATA
6000.000000	16.620110
5998.000000	16.652337
5996.000000	16.683912
5994.000000	16.716309
5992.000000	16.749946
5990.000000	16.783341
5988.000000	16.815756
5986.000000	16.848418
5984.000000	16.881494
5982.000000	16.915559
5980.000000	16.949094
5978.000000	16.981296
5976.000000	17.013123
5974.000000	17.045799
5972.000000	17.079897
5970.000000	17.114491
5968.000000	17.147974
5966.000000	17.181214
5964.000000	17.215515
5962.000000	17.251324
5960.000000	17.286994
5958.000000	17.321790
5956.000000	17.355340
5954.000000	17.388719
5952.000000	17.422113
5950.000000	17.456492
5948.000000	17.491424
5946.000000	17.525049
5944.000000	17.558530
5942.000000	17.593290
5940.000000	17.628172
5938.000000	17.661559
5936.000000	17.693650
5934.000000	17.726089
5932.000000	17.759767
5930.000000	17.794740
5928.000000	17.829471
5926.000000	17.864019
5924.000000	17.898411
5922.000000	17.934018
5920.000000	17.970604
5918.000000	18.006995
5916.000000	18.042597
5914.000000	18.078654
5912.000000	18.115432
5910.000000	18.152201
5908.000000	18.188419
5906.000000	18.224680
5904.000000	18.260385
5902.000000	18.296607
5900.000000	18.332676
5898.000000	18.369333
5896.000000	18.405983
5894.000000	18.442544
5892.000000	18.478217
5890.000000	18.514255
5888.000000	18.550537
5886.000000	18.587313
5884.000000	18.623439
5882.000000	18.658880
5880.000000	18.694453
5878.000000	18.730249
5876.000000	18.765552
5874.000000	18.801405
5872.000000	18.837758
5870.000000	18.875497
5868.000000	18.913422
5866.000000	18.951128
5864.000000	18.987756
5862.000000	19.023816
5860.000000	19.060135
5858.000000	19.097590
5856.000000	19.136130
5854.000000	19.174756
5852.000000	19.212859
5850.000000	19.251745
5848.000000	19.291090
5846.000000	19.331613
5844.000000	19.371736
5842.000000	19.410763
5840.000000	19.450414
5838.000000	19.491979
5836.000000	19.534632
5834.000000	19.577063
5832.000000	19.618271
5830.000000	19.659117
5828.000000	19.700893
5826.000000	19.742477
5824.000000	19.783266
5822.000000	19.823786
5820.000000	19.863796
5818.000000	19.904468
5816.000000	19.944977
5814.000000	19.985516
5812.000000	20.026722
5810.000000	20.067542
5808.000000	20.107481
5806.000000	20.147445
5804.000000	20.187104
5802.000000	20.227748
5800.000000	20.268119
5798.000000	20.309238
5796.000000	20.351188
5794.000000	20.393420
5792.000000	20.434793
5790.000000	20.474342
5788.000000	20.513590
5786.000000	20.554506
5784.000000	20.596134
5782.000000	20.638088
5780.000000	20.678829
5778.000000	20.721034
5776.000000	20.763761
5774.000000	20.806360
5772.000000	20.848227
5770.000000	20.889897
5768.000000	20.931956
5766.000000	20.973309
5764.000000	21.014347
5762.000000	21.055837
5760.000000	21.097488
5758.000000	21.139795
5756.000000	21.182444
5754.000000	21.225124
5752.000000	21.267476
5750.000000	21.309038
5748.000000	21.350002
5746.000000	21.390575
5744.000000	21.430913
5742.000000	21.471620
5740.000000	21.512356
5738.000000	21.553166
5736.000000	21.593913
5734.000000	21.633905
5732.000000	21.673633
5730.000000	21.713806
5728.000000	21.754840
5726.000000	21.796588
5724.000000	21.838142
5722.000000	21.879833
5720.000000	21.921254
5718.000000	21.963548
5716.000000	22.006991
5714.000000	22.050924
5712.000000	22.094383
5710.000000	22.137600
5708.000000	22.180955
5706.000000	22.224976
5704.000000	22.269181
5702.000000	22.314050
5700.000000	22.357978
5698.000000	22.401980
5696.000000	22.446241
5694.000000	22.491896
5692.000000	22.538223
5690.000000	22.582936
5688.000000	22.627334
5686.000000	22.671982
5684.000000	22.717946
5682.000000	22.763731
5680.000000	22.808373
5678.000000	22.852634
5676.000000	22.897056
5674.000000	22.942471
5672.000000	22.988167
5670.000000	23.034266
5668.000000	23.079955
5666.000000	23.125254
5664.000000	23.169775
5662.000000	23.214339
5660.000000	23.258957
5658.000000	23.305071
5656.000000	23.350698
5654.000000	23.396598
5652.000000	23.441730
5650.000000	23.487106
5648.000000	23.532717
5646.000000	23.578259
5644.000000	23.624929
5642.000000	23.671489
5640.000000	23.716963
5638.000000	23.761497
5636.000000	23.806324
5634.000000	23.852395
5632.000000	23.897251
5630.000000	23.941271
5628.000000	23.986435
5626.000000	24.032426
5624.000000	24.077602
5622.000000	24.122059
5620.000000	24.166485
5618.000000	24.211506
5616.000000	24.256643
5614.000000	24.302529
5612.000000	24.348774
5610.000000	24.394512
5608.000000	24.439384
5606.000000	24.484933
5604.000000	24.531267
5602.000000	24.578091
5600.000000	24.623757
5598.000000	24.669271
5596.000000	24.714715
5594.000000	24.761115
5592.000000	24.807782
5590.000000	24.855097
5588.000000	24.901821
5586.000000	24.948102
5584.000000	24.993723
5582.000000	25.040082
5580.000000	25.087026
5578.000000	25.134500
5576.000000	25.182655
5574.000000	25.230385
5572.000000	25.277348
5570.000000	25.325147
5568.000000	25.373086
5566.000000	25.421481
5564.000000	25.468465
5562.000000	25.515108
5560.000000	25.562985
5558.000000	25.610732
5556.000000	25.657773
5554.000000	25.703879
5552.000000	25.750368
5550.000000	25.798593
5548.000000	25.846798
5546.000000	25.895799
5544.000000	25.944030
5542.000000	25.990750
5540.000000	26.035758
5538.000000	26.080843
5536.000000	26.128302
5534.000000	26.177998
5532.000000	26.227305
5530.000000	26.275050
5528.000000	26.321240
5526.000000	26.366519
5524.000000	26.412197
5522.000000	26.459030
5520.000000	26.506263
5518.000000	26.554053
5516.000000	26.602215
5514.000000	26.650627
5512.000000	26.696328
5510.000000	26.739701
5508.000000	26.784819
5506.000000	26.833499
5504.000000	26.884300
5502.000000	26.933806
5500.000000	26.982491
5498.000000	27.027668
5496.000000	27.067968
5494.000000	27.107921
5492.000000	27.152562
5490.000000	27.204787
5488.000000	27.261039
5486.000000	27.318218
5484.000000	27.374083
5482.000000	27.426192
5480.000000	27.468690
5478.000000	27.501669
5476.000000	27.540168
5474.000000	27.592919
5472.000000	27.653455
5470.000000	27.706954
5468.000000	27.753275
5466.000000	27.798191
5464.000000	27.841039
5462.000000	27.886115
5460.000000	27.938070
5458.000000	27.995752
5456.000000	28.053579
5454.000000	28.104188
5452.000000	28.147165
5450.000000	28.183088
5448.000000	28.218436
5446.000000	28.261285
5444.000000	28.309724
5442.000000	28.365623
5440.000000	28.421414
5438.000000	28.469673
5436.000000	28.513971
5434.000000	28.558729
5432.000000	28.603599
5430.000000	28.649847
5428.000000	28.705474
5426.000000	28.773319
5424.000000	28.837869
5422.000000	28.893861
5420.000000	28.943448
5418.000000	28.977528
5416.000000	28.998176
5414.000000	29.023913
5412.000000	29.072349
5410.000000	29.141109
5408.000000	29.211246
5406.000000	29.274869
5404.000000	29.330577
5402.000000	29.381904
5400.000000	29.425873
5398.000000	29.459390
5396.000000	29.491291
5394.000000	29.538829
5392.000000	29.602763
5390.000000	29.664402
5388.000000	29.710836
5386.000000	29.756556
5384.000000	29.813645
5382.000000	29.871391
5380.000000	29.910157
5378.000000	29.942850
5376.000000	29.990961
5374.000000	30.059034
5372.000000	30.129501
5370.000000	30.190126
5368.000000	30.239835
5366.000000	30.284102
5364.000000	30.331043
5362.000000	30.385758
5360.000000	30.441387
5358.000000	30.483607
5356.000000	30.512328
5354.000000	30.548232
5352.000000	30.601473
5350.000000	30.658624
5348.000000	30.696214
5346.000000	30.730014
5344.000000	30.778762
5342.000000	30.832291
5340.000000	30.878751
5338.000000	30.930200
5336.000000	30.998186
5334.000000	31.068670
5332.000000	31.124264
5330.000000	31.168549
5328.000000	31.216100
5326.000000	31.273675
5324.000000	31.338173
5322.000000	31.397913
5320.000000	31.449743
5318.000000	31.498586
5316.000000	31.547689
5314.000000	31.599053
5312.000000	31.647327
5310.000000	31.689468
5308.000000	31.733574
5306.000000	31.787055
5304.000000	31.844998
5302.000000	31.899515
5300.000000	31.951898
5298.000000	32.005629
5296.000000	32.057032
5294.000000	32.099240
5292.000000	32.139409
5290.000000	32.188844
5288.000000	32.245832
5286.000000	32.303227
5284.000000	32.356287
5282.000000	32.410813
5280.000000	32.467612
5278.000000	32.524833
5276.000000	32.580463
5274.000000	32.631280
5272.000000	32.677061
5270.000000	32.720654
5268.000000	32.757871
5266.000000	32.792252
5264.000000	32.835540
5262.000000	32.899219
5260.000000	32.969429
5258.000000	33.024167
5256.000000	33.068953
5254.000000	33.119922
5252.000000	33.170909
5250.000000	33.212674
5248.000000	33.252405
5246.000000	33.305817
5244.000000	33.373179
5242.000000	33.442978
5240.000000	33.507795
5238.000000	33.562675
5236.000000	33.610340
5234.000000	33.655047
5232.000000	33.702570
5230.000000	33.750278
5228.000000	33.792617
5226.000000	33.836933
5224.000000	33.894215
5222.000000	33.959266
5220.000000	34.018609
5218.000000	34.074378
5216.000000	34.131469
5214.000000	34.185976
5212.000000	34.228054
5210.000000	34.256233
5208.000000	34.287429
5206.000000	34.342879
5204.000000	34.419187
5202.000000	34.491636
5200.000000	34.545368
5198.000000	34.594141
5196.000000	34.649689
5194.000000	34.709444
5192.000000	34.764913
5190.000000	34.815591
5188.000000	34.863381
5186.000000	34.913114
5184.000000	34.968335
5182.000000	35.028062
5180.000000	35.086498
5178.000000	35.143568
5176.000000	35.200264
5174.000000	35.254803
5172.000000	35.308021
5170.000000	35.363419
5168.000000	35.418379
5166.000000	35.469809
5164.000000	35.521280
5162.000000	35.576875
5160.000000	35.632568
5158.000000	35.685341
5156.000000	35.738233
5154.000000	35.794499
5152.000000	35.852334
5150.000000	35.909565
5148.000000	35.964303
5146.000000	36.016254
5144.000000	36.067026
5142.000000	36.120645
5140.000000	36.176644
5138.000000	36.232659
5136.000000	36.286394
5134.000000	36.339899
5132.000000	36.394118
5130.000000	36.449598
5128.000000	36.504670
5126.000000	36.558315
5124.000000	36.610255
5122.000000	36.663011
5120.000000	36.717418
5118.000000	36.773173
5116.000000	36.828522
5114.000000	36.883425
5112.000000	36.937531
5110.000000	36.991573
5108.000000	37.045961
5106.000000	37.101009
5104.000000	37.156467
5102.000000	37.212165
5100.000000	37.267770
5098.000000	37.323122
5096.000000	37.378507
5094.000000	37.435405
5092.000000	37.492732
5090.000000	37.550532
5088.000000	37.607270
5086.000000	37.662950
5084.000000	37.718678
5082.000000	37.776346
5080.000000	37.834236
5078.000000	37.890143
5076.000000	37.944941
5074.000000	38.000950
5072.000000	38.058036
5070.000000	38.115947
5068.000000	38.172571
5066.000000	38.228401
5064.000000	38.284305
5062.000000	38.340971
5060.000000	38.397032
5058.000000	38.453212
5056.000000	38.509684
5054.000000	38.565027
5052.000000	38.620056
5050.000000	38.676739
5048.000000	38.733407
5046.000000	38.788451
5044.000000	38.843548
5042.000000	38.900363
5040.000000	38.957740
5038.000000	39.014112
5036.000000	39.069284
5034.000000	39.124251
5032.000000	39.179604
5030.000000	39.235777
5028.000000	39.292182
5026.000000	39.348440
5024.000000	39.403808
5022.000000	39.459648
5020.000000	39.516134
5018.000000	39.573244
5016.000000	39.629908
5014.000000	39.686777
5012.000000	39.743590
5010.000000	39.800648
5008.000000	39.856804
5006.000000	39.912808
5004.000000	39.968925
5002.000000	40.026168
5000.000000	40.084028
4998.000000	40.143142
4996.000000	40.201300
4994.000000	40.258957
4992.000000	40.317020
4990.000000	40.376445
4988.000000	40.434685
4986.000000	40.491416
4984.000000	40.549013
4982.000000	40.608368
4980.000000	40.666878
4978.000000	40.724006
4976.000000	40.781446
4974.000000	40.839973
4972.000000	40.897983
4970.000000	40.955412
4968.000000	41.012676
4966.000000	41.070989
4964.000000	41.129918
4962.000000	41.188391
4960.000000	41.245566
4958.000000	41.302415
4956.000000	41.359442
4954.000000	41.416104
4952.000000	41.471924
4950.000000	41.527757
4948.000000	41.584773
4946.000000	41.642919
4944.000000	41.700152
4942.000000	41.756782
4940.000000	41.813175
4938.000000	41.869504
4936.000000	41.925135
4934.000000	41.981446
4932.000000	42.038648
4930.000000	42.095614
4928.000000	42.152671
4926.000000	42.210411
4924.000000	42.268351
4922.000000	42.325033
4920.000000	42.380810
4918.000000	42.438087
4916.000000	42.496324
4914.000000	42.554907
4912.000000	42.612878
4910.000000	42.671502
4908.000000	42.729833
4906.000000	42.787441
4904.000000	42.844798
4902.000000	42.903780
4900.000000	42.963307
4898.000000	43.022610
4896.000000	43.081686
4894.000000	43.141015
4892.000000	43.199093
4890.000000	43.257694
4888.000000	43.318047
4886.000000	43.378650
4884.000000	43.437380
4882.000000	43.495241
4880.000000	43.553917
4878.000000	43.613908
4876.000000	43.674454
4874.000000	43.734348
4872.000000	43.793012
4870.000000	43.851678
4868.000000	43.910348
4866.000000	43.968775
4864.000000	44.026363
4862.000000	44.084900
4860.000000	44.143790
4858.000000	44.202021
4856.000000	44.258814
4854.000000	44.316408
4852.000000	44.374233
4850.000000	44.432288
4848.000000	44.490697
4846.000000	44.549095
4844.000000	44.606015
4842.000000	44.663451
4840.000000	44.721571
4838.000000	44.779307
4836.000000	44.836449
4834.000000	44.894594
4832.000000	44.952588
4830.000000	45.010659
4828.000000	45.068321
4826.000000	45.126333
4824.000000	45.183802
4822.000000	45.241052
4820.000000	45.298270
4818.000000	45.356722
4816.000000	45.415443
4814.000000	45.475364
4812.000000	45.535995
4810.000000	45.595640
4808.000000	45.653896
4806.000000	45.712949
4804.000000	45.772815
4802.000000	45.832869
4800.000000	45.892283
4798.000000	45.951925
4796.000000	46.012308
4794.000000	46.073602
4792.000000	46.134493
4790.000000	46.196184
4788.000000	46.257133
4786.000000	46.317467
4784.000000	46.378313
4782.000000	46.440236
4780.000000	46.500449
4778.000000	46.559611
4776.000000	46.619030
4774.000000	46.678753
4772.000000	46.737907
4770.000000	46.797079
4768.000000	46.855898
4766.000000	46.914456
4764.000000	46.972258
4762.000000	47.030482
4760.000000	47.089826
4758.000000	47.149468
4756.000000	47.208232
4754.000000	47.266373
4752.000000	47.323821
4750.000000	47.382281
4748.000000	47.441076
4746.000000	47.499511
4744.000000	47.557891
4742.000000	47.616820
4740.000000	47.674180
4738.000000	47.731548
4736.000000	47.790185
4734.000000	47.849069
4732.000000	47.906781
4730.000000	47.964696
4728.000000	48.022701
4726.000000	48.082042
4724.000000	48.142381
4722.000000	48.202242
4720.000000	48.260614
4718.000000	48.321176
4716.000000	48.383733
4714.000000	48.446153
4712.000000	48.508211
4710.000000	48.570905
4708.000000	48.633562
4706.000000	48.695672
4704.000000	48.757455
4702.000000	48.820649
4700.000000	48.885194
4698.000000	48.949272
4696.000000	49.011558
4694.000000	49.073250
4692.000000	49.134202
4690.000000	49.195472
4688.000000	49.256476
4686.000000	49.317873
4684.000000	49.379536
4682.000000	49.441532
4680.000000	49.502131
4678.000000	49.562866
4676.000000	49.624254
4674.000000	49.686637
4672.000000	49.748420
4670.000000	49.809551
4668.000000	49.869807
4666.000000	49.930992
4664.000000	49.992980
4662.000000	50.054855
4660.000000	50.115265
4658.000000	50.176024
4656.000000	50.237431
4654.000000	50.298450
4652.000000	50.359240
4650.000000	50.422177
4648.000000	50.484920
4646.000000	50.544987
4644.000000	50.603762
4642.000000	50.664191
4640.000000	50.725544
4638.000000	50.787473
4636.000000	50.848693
4634.000000	50.909167
4632.000000	50.969506
4630.000000	51.031369
4628.000000	51.093072
4626.000000	51.154211
4624.000000	51.214613
4622.000000	51.276020
4620.000000	51.338306
4618.000000	51.401832
4616.000000	51.464587
4614.000000	51.526983
4612.000000	51.590366
4610.000000	51.656017
4608.000000	51.721168
4606.000000	51.785314
4604.000000	51.849995
4602.000000	51.916430
4600.000000	51.981945
4598.000000	52.046853
4596.000000	52.111687
4594.000000	52.176791
4592.000000	52.241290
4590.000000	52.305990
4588.000000	52.369398
4586.000000	52.432917
4584.000000	52.496964
4582.000000	52.561682
4580.000000	52.625570
4578.000000	52.690216
4576.000000	52.754503
4574.000000	52.818712
4572.000000	52.882424
4570.000000	52.946930
4568.000000	53.010702
4566.000000	53.074343
4564.000000	53.137247
4562.000000	53.200214
4560.000000	53.262991
4558.000000	53.326784
4556.000000	53.390163
4554.000000	53.452324
4552.000000	53.513948
4550.000000	53.576594
4548.000000	53.638979
4546.000000	53.701935
4544.000000	53.765118
4542.000000	53.826840
4540.000000	53.887950
4538.000000	53.951672
4536.000000	54.015939
4534.000000	54.079705
4532.000000	54.143325
4530.000000	54.207551
4528.000000	54.270470
4526.000000	54.332661
4524.000000	54.394921
4522.000000	54.458801
4520.000000	54.523029
4518.000000	54.587544
4516.000000	54.651218
4514.000000	54.715063
4512.000000	54.779617
4510.000000	54.845909
4508.000000	54.911436
4506.000000	54.976742
4504.000000	55.042578
4502.000000	55.109224
4500.000000	55.175152
4498.000000	55.241369
4496.000000	55.306646
4494.000000	55.372353
4492.000000	55.437925
4490.000000	55.502832
4488.000000	55.566087
4486.000000	55.630169
4484.000000	55.694830
4482.000000	55.760010
4480.000000	55.823825
4478.000000	55.888109
4476.000000	55.951797
4474.000000	56.015093
4472.000000	56.077482
4470.000000	56.140649
4468.000000	56.203939
4466.000000	56.267599
4464.000000	56.330331
4462.000000	56.392850
4460.000000	56.454793
4458.000000	56.517872
4456.000000	56.581073
4454.000000	56.643466
4452.000000	56.704269
4450.000000	56.765683
4448.000000	56.827478
4446.000000	56.890209
4444.000000	56.953207
4442.000000	57.016632
4440.000000	57.078206
4438.000000	57.139845
4436.000000	57.202042
4434.000000	57.265075
4432.000000	57.328337
4430.000000	57.392831
4428.000000	57.456517
4426.000000	57.520374
4424.000000	57.583829
4422.000000	57.647561
4420.000000	57.710522
4418.000000	57.773487
4416.000000	57.836470
4414.000000	57.901179
4412.000000	57.965935
4410.000000	58.031255
4408.000000	58.096922
4406.000000	58.162456
4404.000000	58.226059
4402.000000	58.289805
4400.000000	58.353141
4398.000000	58.416235
4396.000000	58.480163
4394.000000	58.544934
4392.000000	58.607878
4390.000000	58.671022
4388.000000	58.732901
4386.000000	58.793475
4384.000000	58.854697
4382.000000	58.917443
4380.000000	58.978598
4378.000000	59.039444
4376.000000	59.100045
4374.000000	59.160466
4372.000000	59.219781
4370.000000	59.280034
4368.000000	59.340344
4366.000000	59.400532
4364.000000	59.460112
4362.000000	59.521254
4360.000000	59.583210
4358.000000	59.645426
4356.000000	59.707076
4354.000000	59.770333
4352.000000	59.833500
4350.000000	59.897076
4348.000000	59.960204
4346.000000	60.022923
4344.000000	60.085021
4342.000000	60.148841
4340.000000	60.212757
4338.000000	60.276437
4336.000000	60.339111
4334.000000	60.402786
4332.000000	60.467170
4330.000000	60.532381
4328.000000	60.597338
4326.000000	60.662809
4324.000000	60.727778
4322.000000	60.793931
4320.000000	60.861051
4318.000000	60.928761
4316.000000	60.996181
4314.000000	61.065100
4312.000000	61.133060
4310.000000	61.199747
4308.000000	61.266433
4306.000000	61.334065
4304.000000	61.399697
4302.000000	61.465483
4300.000000	61.532060
4298.000000	61.598060
4296.000000	61.661810
4294.000000	61.725845
4292.000000	61.789194
