PE IR       SUBTECH     SPECTRUM    ASCII       PEDS        4.00        
   -1
TE110A_047_115K_BG.ASC
20/05/14
13:22:39.00
20/05/14
13:22:39.00
Administrator
TE110A.Thursday, May 14 2020, 016.
1000.000000
#HDR
-1
-1
#GR
cm-1
EGY
1.0
0.0
6000.000000
-2.000000
2501
8
105.388433
11.023238
#DATA
6000.000000	16.582677
5998.000000	16.615938
5996.000000	16.649805
5994.000000	16.682465
5992.000000	16.714721
5990.000000	16.747980
5988.000000	16.781407
5986.000000	16.814387
5984.000000	16.846749
5982.000000	16.879694
5980.000000	16.913193
5978.000000	16.947183
5976.000000	16.980029
5974.000000	17.012565
5972.000000	17.045017
5970.000000	17.078153
5968.000000	17.111985
5966.000000	17.145642
5964.000000	17.180181
5962.000000	17.215994
5960.000000	17.251166
5958.000000	17.285830
5956.000000	17.319205
5954.000000	17.353245
5952.000000	17.387527
5950.000000	17.421535
5948.000000	17.454740
5946.000000	17.488363
5944.000000	17.521881
5942.000000	17.555831
5940.000000	17.589683
5938.000000	17.623776
5936.000000	17.658846
5934.000000	17.693460
5932.000000	17.726658
5930.000000	17.760121
5928.000000	17.794013
5926.000000	17.829077
5924.000000	17.863959
5922.000000	17.898702
5920.000000	17.933265
5918.000000	17.968438
5916.000000	18.003929
5914.000000	18.041083
5912.000000	18.078020
5910.000000	18.114848
5908.000000	18.151990
5906.000000	18.188572
5904.000000	18.225278
5902.000000	18.261250
5900.000000	18.296967
5898.000000	18.333084
5896.000000	18.369058
5894.000000	18.405593
5892.000000	18.441017
5890.000000	18.476228
5888.000000	18.512227
5886.000000	18.549456
5884.000000	18.586724
5882.000000	18.622678
5880.000000	18.657613
5878.000000	18.693031
5876.000000	18.729767
5874.000000	18.766992
5872.000000	18.803875
5870.000000	18.840258
5868.000000	18.877335
5866.000000	18.915151
5864.000000	18.952119
5862.000000	18.988446
5860.000000	19.025169
5858.000000	19.062870
5856.000000	19.100776
5854.000000	19.138493
5852.000000	19.175886
5850.000000	19.214676
5848.000000	19.254365
5846.000000	19.293865
5844.000000	19.332736
5842.000000	19.371964
5840.000000	19.412965
5838.000000	19.455900
5836.000000	19.498420
5834.000000	19.540294
5832.000000	19.581154
5830.000000	19.621813
5828.000000	19.662949
5826.000000	19.704582
5824.000000	19.746376
5822.000000	19.787864
5820.000000	19.828915
5818.000000	19.869377
5816.000000	19.909081
5814.000000	19.948763
5812.000000	19.988215
5810.000000	20.028759
5808.000000	20.069671
5806.000000	20.110626
5804.000000	20.151390
5802.000000	20.192533
5800.000000	20.233579
5798.000000	20.273755
5796.000000	20.313147
5794.000000	20.353802
5792.000000	20.395511
5790.000000	20.437138
5788.000000	20.477662
5786.000000	20.518447
5784.000000	20.560562
5782.000000	20.603149
5780.000000	20.644709
5778.000000	20.685166
5776.000000	20.725946
5774.000000	20.767946
5772.000000	20.810529
5770.000000	20.851920
5768.000000	20.892580
5766.000000	20.933942
5764.000000	20.975688
5762.000000	21.018405
5760.000000	21.061069
5758.000000	21.103552
5756.000000	21.145210
5754.000000	21.186175
5752.000000	21.227661
5750.000000	21.269837
5748.000000	21.311920
5746.000000	21.354075
5744.000000	21.395344
5742.000000	21.436167
5740.000000	21.475944
5738.000000	21.515397
5736.000000	21.554919
5734.000000	21.594359
5732.000000	21.634497
5730.000000	21.675332
5728.000000	21.716479
5726.000000	21.757606
5724.000000	21.798741
5722.000000	21.840534
5720.000000	21.882198
5718.000000	21.924305
5716.000000	21.967833
5714.000000	22.012255
5712.000000	22.055883
5710.000000	22.099156
5708.000000	22.142690
5706.000000	22.186856
5704.000000	22.230180
5702.000000	22.273027
5700.000000	22.317212
5698.000000	22.363090
5696.000000	22.408615
5694.000000	22.453177
5692.000000	22.496314
5690.000000	22.540789
5688.000000	22.586566
5686.000000	22.632117
5684.000000	22.677551
5682.000000	22.722639
5680.000000	22.768145
5678.000000	22.813238
5676.000000	22.858714
5674.000000	22.905098
5672.000000	22.951109
5670.000000	22.995943
5668.000000	23.040788
5666.000000	23.085637
5664.000000	23.131025
5662.000000	23.176831
5660.000000	23.222347
5658.000000	23.267366
5656.000000	23.312138
5654.000000	23.357512
5652.000000	23.402842
5650.000000	23.447796
5648.000000	23.493440
5646.000000	23.540299
5644.000000	23.585866
5642.000000	23.630459
5640.000000	23.674475
5638.000000	23.719344
5636.000000	23.764081
5634.000000	23.810055
5632.000000	23.856337
5630.000000	23.902606
5628.000000	23.947662
5626.000000	23.992166
5624.000000	24.037396
5622.000000	24.083696
5620.000000	24.129719
5618.000000	24.173776
5616.000000	24.217484
5614.000000	24.262034
5612.000000	24.307775
5610.000000	24.352993
5608.000000	24.397906
5606.000000	24.443925
5604.000000	24.489832
5602.000000	24.535833
5600.000000	24.581254
5598.000000	24.627019
5596.000000	24.673440
5594.000000	24.719496
5592.000000	24.765641
5590.000000	24.812468
5588.000000	24.859552
5586.000000	24.907178
5584.000000	24.952582
5582.000000	24.998022
5580.000000	25.044058
5578.000000	25.091235
5576.000000	25.138601
5574.000000	25.185995
5572.000000	25.234027
5570.000000	25.282870
5568.000000	25.331415
5566.000000	25.379743
5564.000000	25.428228
5562.000000	25.476182
5560.000000	25.522886
5558.000000	25.568527
5556.000000	25.614342
5554.000000	25.660901
5552.000000	25.707851
5550.000000	25.755341
5548.000000	25.803456
5546.000000	25.851411
5544.000000	25.899373
5542.000000	25.946943
5540.000000	25.992915
5538.000000	26.037760
5536.000000	26.084124
5534.000000	26.134094
5532.000000	26.184665
5530.000000	26.233198
5528.000000	26.280466
5526.000000	26.326377
5524.000000	26.370133
5522.000000	26.413473
5520.000000	26.458619
5518.000000	26.507624
5516.000000	26.557686
5514.000000	26.606030
5512.000000	26.651475
5510.000000	26.695361
5508.000000	26.741751
5506.000000	26.791106
5504.000000	26.841972
5502.000000	26.891556
5500.000000	26.939420
5498.000000	26.984089
5496.000000	27.024549
5494.000000	27.065295
5492.000000	27.109448
5490.000000	27.160632
5488.000000	27.216119
5486.000000	27.273218
5484.000000	27.328993
5482.000000	27.380549
5480.000000	27.422302
5478.000000	27.456058
5476.000000	27.496084
5474.000000	27.550038
5472.000000	27.609169
5470.000000	27.661688
5468.000000	27.709332
5466.000000	27.755633
5464.000000	27.798648
5462.000000	27.843172
5460.000000	27.894935
5458.000000	27.952637
5456.000000	28.009973
5454.000000	28.059799
5452.000000	28.101734
5450.000000	28.137871
5448.000000	28.174961
5446.000000	28.217802
5444.000000	28.263870
5442.000000	28.318602
5440.000000	28.374722
5438.000000	28.424165
5436.000000	28.469089
5434.000000	28.514484
5432.000000	28.558830
5430.000000	28.603553
5428.000000	28.658354
5426.000000	28.726639
5424.000000	28.792262
5422.000000	28.848384
5420.000000	28.897063
5418.000000	28.930860
5416.000000	28.952507
5414.000000	28.979532
5412.000000	29.027623
5410.000000	29.095420
5408.000000	29.165092
5406.000000	29.228582
5404.000000	29.284018
5402.000000	29.334541
5400.000000	29.378650
5398.000000	29.413675
5396.000000	29.446402
5394.000000	29.494168
5392.000000	29.557595
5390.000000	29.618674
5388.000000	29.664896
5386.000000	29.709834
5384.000000	29.765995
5382.000000	29.823117
5380.000000	29.863027
5378.000000	29.897523
5376.000000	29.946005
5374.000000	30.013571
5372.000000	30.082058
5370.000000	30.141580
5368.000000	30.191481
5366.000000	30.237545
5364.000000	30.285417
5362.000000	30.339312
5360.000000	30.393478
5358.000000	30.434424
5356.000000	30.462643
5354.000000	30.498995
5352.000000	30.553170
5350.000000	30.611798
5348.000000	30.650585
5346.000000	30.684416
5344.000000	30.732209
5342.000000	30.784887
5340.000000	30.832153
5338.000000	30.883785
5336.000000	30.951033
5334.000000	31.019889
5332.000000	31.074863
5330.000000	31.119004
5328.000000	31.166402
5326.000000	31.224800
5324.000000	31.290661
5322.000000	31.350632
5320.000000	31.401523
5318.000000	31.449168
5316.000000	31.497983
5314.000000	31.549522
5312.000000	31.597722
5310.000000	31.639795
5308.000000	31.683701
5306.000000	31.737276
5304.000000	31.796269
5302.000000	31.851234
5300.000000	31.903200
5298.000000	31.956433
5296.000000	32.008418
5294.000000	32.051633
5292.000000	32.090731
5290.000000	32.137636
5288.000000	32.194151
5286.000000	32.252666
5284.000000	32.306599
5282.000000	32.360454
5280.000000	32.416350
5278.000000	32.474006
5276.000000	32.530374
5274.000000	32.581892
5272.000000	32.628362
5270.000000	32.672460
5268.000000	32.710313
5266.000000	32.744133
5264.000000	32.787271
5262.000000	32.850641
5260.000000	32.921197
5258.000000	32.975536
5256.000000	33.019814
5254.000000	33.070010
5252.000000	33.120944
5250.000000	33.162570
5248.000000	33.201808
5246.000000	33.255941
5244.000000	33.323795
5242.000000	33.393506
5240.000000	33.457511
5238.000000	33.512143
5236.000000	33.560332
5234.000000	33.605454
5232.000000	33.652980
5230.000000	33.699526
5228.000000	33.740652
5226.000000	33.785062
5224.000000	33.842993
5222.000000	33.908244
5220.000000	33.967168
5218.000000	34.021695
5216.000000	34.078482
5214.000000	34.134159
5212.000000	34.176966
5210.000000	34.205349
5208.000000	34.236989
5206.000000	34.293465
5204.000000	34.369005
5202.000000	34.441139
5200.000000	34.495946
5198.000000	34.544668
5196.000000	34.598165
5194.000000	34.656976
5192.000000	34.713142
5190.000000	34.764745
5188.000000	34.812670
5186.000000	34.862932
5184.000000	34.918568
5182.000000	34.978593
5180.000000	35.036532
5178.000000	35.091532
5176.000000	35.146374
5174.000000	35.199873
5172.000000	35.252444
5170.000000	35.306957
5168.000000	35.362822
5166.000000	35.416068
5164.000000	35.467514
5162.000000	35.521616
5160.000000	35.577130
5158.000000	35.631486
5156.000000	35.686600
5154.000000	35.743152
5152.000000	35.799610
5150.000000	35.855017
5148.000000	35.910123
5146.000000	35.963970
5144.000000	36.015541
5142.000000	36.067969
5140.000000	36.121620
5138.000000	36.177100
5136.000000	36.232000
5134.000000	36.287542
5132.000000	36.342666
5130.000000	36.397137
5128.000000	36.450391
5126.000000	36.504214
5124.000000	36.557775
5122.000000	36.611109
5120.000000	36.663961
5118.000000	36.718576
5116.000000	36.773702
5114.000000	36.828097
5112.000000	36.882064
5110.000000	36.937517
5108.000000	36.992959
5106.000000	37.047831
5104.000000	37.103121
5102.000000	37.159664
5100.000000	37.215097
5098.000000	37.269558
5096.000000	37.324739
5094.000000	37.381984
5092.000000	37.439339
5090.000000	37.495423
5088.000000	37.550882
5086.000000	37.607695
5084.000000	37.664704
5082.000000	37.721638
5080.000000	37.778182
5078.000000	37.835463
5076.000000	37.892335
5074.000000	37.948889
5072.000000	38.005469
5070.000000	38.062633
5068.000000	38.119480
5066.000000	38.174880
5064.000000	38.230246
5062.000000	38.286863
5060.000000	38.343728
5058.000000	38.400552
5056.000000	38.456764
5054.000000	38.512611
5052.000000	38.567806
5050.000000	38.623672
5048.000000	38.679715
5046.000000	38.735490
5044.000000	38.790197
5042.000000	38.845124
5040.000000	38.900940
5038.000000	38.957648
5036.000000	39.013485
5034.000000	39.069007
5032.000000	39.124502
5030.000000	39.180523
5028.000000	39.236582
5026.000000	39.293084
5024.000000	39.349394
5022.000000	39.404900
5020.000000	39.459977
5018.000000	39.515972
5016.000000	39.572398
5014.000000	39.628834
5012.000000	39.685199
5010.000000	39.742291
5008.000000	39.799567
5006.000000	39.857043
5004.000000	39.914413
5002.000000	39.971655
5000.000000	40.028384
4998.000000	40.085437
4996.000000	40.142639
4994.000000	40.201165
4992.000000	40.259902
4990.000000	40.318959
4988.000000	40.377212
4986.000000	40.435154
4984.000000	40.492746
4982.000000	40.551101
4980.000000	40.609284
4978.000000	40.666867
4976.000000	40.724063
4974.000000	40.781877
4972.000000	40.839513
4970.000000	40.897817
4968.000000	40.956241
4966.000000	41.014739
4964.000000	41.072004
4962.000000	41.129396
4960.000000	41.185878
4958.000000	41.241942
4956.000000	41.298302
4954.000000	41.356325
4952.000000	41.414312
4950.000000	41.472084
4948.000000	41.529536
4946.000000	41.587198
4944.000000	41.643967
4942.000000	41.700220
4940.000000	41.755582
4938.000000	41.811177
4936.000000	41.867723
4934.000000	41.924974
4932.000000	41.981862
4930.000000	42.038700
4928.000000	42.095539
4926.000000	42.153141
4924.000000	42.210700
4922.000000	42.267835
4920.000000	42.323475
4918.000000	42.379270
4916.000000	42.435822
4914.000000	42.494592
4912.000000	42.553873
4910.000000	42.612216
4908.000000	42.669400
4906.000000	42.727936
4904.000000	42.786490
4902.000000	42.844799
4900.000000	42.903296
4898.000000	42.962115
4896.000000	43.020418
4894.000000	43.080012
4892.000000	43.140306
4890.000000	43.199366
4888.000000	43.257138
4886.000000	43.316344
4884.000000	43.376193
4882.000000	43.436565
4880.000000	43.497117
4878.000000	43.557702
4876.000000	43.616274
4874.000000	43.673712
4872.000000	43.731259
4870.000000	43.789948
4868.000000	43.849104
4866.000000	43.907811
4864.000000	43.966041
4862.000000	44.025495
4860.000000	44.084142
4858.000000	44.141883
4856.000000	44.199018
4854.000000	44.256929
4852.000000	44.313805
4850.000000	44.371595
4848.000000	44.429768
4846.000000	44.487608
4844.000000	44.544218
4842.000000	44.601836
4840.000000	44.659789
4838.000000	44.718223
4836.000000	44.776143
4834.000000	44.833971
4832.000000	44.891540
4830.000000	44.949134
4828.000000	45.006520
4826.000000	45.064715
4824.000000	45.123476
4822.000000	45.182462
4820.000000	45.240246
4818.000000	45.298034
4816.000000	45.355889
4814.000000	45.415026
4812.000000	45.473925
4810.000000	45.533084
4808.000000	45.592084
4806.000000	45.652180
4804.000000	45.712991
4802.000000	45.774453
4800.000000	45.834767
4798.000000	45.893874
4796.000000	45.952830
4794.000000	46.013408
4792.000000	46.074557
4790.000000	46.134691
4788.000000	46.193822
4786.000000	46.254448
4784.000000	46.315870
4782.000000	46.376437
4780.000000	46.436166
4778.000000	46.496665
4776.000000	46.556793
4774.000000	46.616437
4772.000000	46.675737
4770.000000	46.735809
4768.000000	46.795893
4766.000000	46.855682
4764.000000	46.913679
4762.000000	46.971142
4760.000000	47.028259
4758.000000	47.086978
4756.000000	47.145830
4754.000000	47.204810
4752.000000	47.263742
4750.000000	47.323654
4748.000000	47.381662
4746.000000	47.438163
4744.000000	47.494412
4742.000000	47.552329
4740.000000	47.610906
4738.000000	47.670040
4736.000000	47.728180
4734.000000	47.786163
4732.000000	47.844274
4730.000000	47.903517
4728.000000	47.962324
4726.000000	48.021530
4724.000000	48.080652
4722.000000	48.139720
4720.000000	48.198604
4718.000000	48.259127
4716.000000	48.320999
4714.000000	48.383664
4712.000000	48.445855
4710.000000	48.508428
4708.000000	48.570982
4706.000000	48.634168
4704.000000	48.696939
4702.000000	48.760454
4700.000000	48.824046
4698.000000	48.887246
4696.000000	48.948707
4694.000000	49.009075
4692.000000	49.068822
4690.000000	49.129673
4688.000000	49.191653
4686.000000	49.254284
4684.000000	49.316275
4682.000000	49.377667
4680.000000	49.438193
4678.000000	49.499903
4676.000000	49.562394
4674.000000	49.624204
4672.000000	49.684390
4670.000000	49.745195
4668.000000	49.806696
4666.000000	49.868464
4664.000000	49.928698
4662.000000	49.988994
4660.000000	50.049720
4658.000000	50.111027
4656.000000	50.171897
4654.000000	50.233618
4652.000000	50.295565
4650.000000	50.357306
4648.000000	50.417917
4646.000000	50.478652
4644.000000	50.538855
4642.000000	50.599089
4640.000000	50.659318
4638.000000	50.720115
4636.000000	50.780543
4634.000000	50.842650
4632.000000	50.904840
4630.000000	50.965698
4628.000000	51.025844
4626.000000	51.087890
4624.000000	51.150205
4622.000000	51.212281
4620.000000	51.273721
4618.000000	51.335781
4616.000000	51.397713
4614.000000	51.461465
4612.000000	51.526171
4610.000000	51.591398
4608.000000	51.656029
4606.000000	51.720889
4604.000000	51.785105
4602.000000	51.849839
4600.000000	51.914880
4598.000000	51.980463
4596.000000	52.045617
4594.000000	52.110451
4592.000000	52.175327
4590.000000	52.240662
4588.000000	52.304646
4586.000000	52.368085
4584.000000	52.431485
4582.000000	52.495156
4580.000000	52.558740
4578.000000	52.623663
4576.000000	52.688364
4574.000000	52.752031
4572.000000	52.814976
4570.000000	52.879399
4568.000000	52.944253
4566.000000	53.008564
4564.000000	53.071059
4562.000000	53.133950
4560.000000	53.197257
4558.000000	53.260806
4556.000000	53.323047
4554.000000	53.385730
4552.000000	53.448672
4550.000000	53.512380
4548.000000	53.575052
4546.000000	53.636682
4544.000000	53.697869
4542.000000	53.760335
4540.000000	53.822015
4538.000000	53.884045
4536.000000	53.946699
4534.000000	54.009082
4532.000000	54.070708
4530.000000	54.134142
4528.000000	54.198374
4526.000000	54.263540
4524.000000	54.327606
4522.000000	54.390923
4520.000000	54.453956
4518.000000	54.518163
4516.000000	54.583181
4514.000000	54.648755
4512.000000	54.713117
4510.000000	54.778860
4508.000000	54.843897
4506.000000	54.907931
4504.000000	54.973288
4502.000000	55.040298
4500.000000	55.105240
4498.000000	55.170394
4496.000000	55.236037
4494.000000	55.302008
4492.000000	55.367153
4490.000000	55.432252
4488.000000	55.497776
4486.000000	55.564108
4484.000000	55.628427
4482.000000	55.692104
4480.000000	55.755823
4478.000000	55.820348
4476.000000	55.883976
4474.000000	55.947842
4472.000000	56.011095
4470.000000	56.074115
4468.000000	56.136493
4466.000000	56.200678
4464.000000	56.263745
4462.000000	56.324892
4460.000000	56.386425
4458.000000	56.450198
4456.000000	56.512242
4454.000000	56.572804
4452.000000	56.632953
4450.000000	56.695079
4448.000000	56.757956
4446.000000	56.820199
4444.000000	56.881264
4442.000000	56.943943
4440.000000	57.006815
4438.000000	57.069606
4436.000000	57.131974
4434.000000	57.196163
4432.000000	57.260488
4430.000000	57.323374
4428.000000	57.384343
4426.000000	57.447613
4424.000000	57.511779
4422.000000	57.575845
4420.000000	57.639675
4418.000000	57.704753
4416.000000	57.769122
4414.000000	57.833487
4412.000000	57.896805
4410.000000	57.960675
4408.000000	58.024984
4406.000000	58.089989
4404.000000	58.154333
4402.000000	58.218325
4400.000000	58.281565
4398.000000	58.345540
4396.000000	58.409422
4394.000000	58.474103
4392.000000	58.537690
4390.000000	58.600277
4388.000000	58.662281
4386.000000	58.724706
4384.000000	58.786122
4382.000000	58.846929
4380.000000	58.906940
4378.000000	58.967744
4376.000000	59.028754
4374.000000	59.089910
4372.000000	59.149561
4370.000000	59.209397
4368.000000	59.269260
4366.000000	59.328432
4364.000000	59.387932
4362.000000	59.450394
4360.000000	59.512625
4358.000000	59.574395
4356.000000	59.635640
4354.000000	59.696890
4352.000000	59.759074
4350.000000	59.823499
4348.000000	59.886918
4346.000000	59.950018
4344.000000	60.013595
4342.000000	60.077501
4340.000000	60.140604
4338.000000	60.204592
4336.000000	60.268610
4334.000000	60.332312
4332.000000	60.395706
4330.000000	60.460257
4328.000000	60.523844
4326.000000	60.587593
4324.000000	60.652499
4322.000000	60.719571
4320.000000	60.787627
4318.000000	60.855761
4316.000000	60.923044
4314.000000	60.991988
4312.000000	61.060056
4310.000000	61.126264
4308.000000	61.191638
4306.000000	61.258696
4304.000000	61.325852
4302.000000	61.392390
4300.000000	61.457894
4298.000000	61.523904
4296.000000	61.589252
4294.000000	61.654362
4292.000000	61.718286
