PE IR       SUBTECH     SPECTRUM    ASCII       PEDS        4.00        
   -1
TE110A_051_80K_AFTER_115K_BG.ASC
20/05/14
14:00:11.00
20/05/14
14:00:11.00
Administrator
TE110A.Thursday, May 14 2020, 003.
1000.000000
#HDR
-1
-1
#GR
cm-1
EGY
1.0
0.0
6000.000000
-2.000000
2501
8
105.512219
11.034051
#DATA
6000.000000	16.659113
5998.000000	16.690868
5996.000000	16.721871
5994.000000	16.754242
5992.000000	16.787517
5990.000000	16.821197
5988.000000	16.854247
5986.000000	16.887301
5984.000000	16.920366
5982.000000	16.953579
5980.000000	16.986654
5978.000000	17.020432
5976.000000	17.053919
5974.000000	17.087103
5972.000000	17.120440
5970.000000	17.154571
5968.000000	17.190035
5966.000000	17.224950
5964.000000	17.258943
5962.000000	17.292572
5960.000000	17.325998
5958.000000	17.360857
5956.000000	17.395664
5954.000000	17.430400
5952.000000	17.464477
5950.000000	17.498378
5948.000000	17.531926
5946.000000	17.565784
5944.000000	17.599366
5942.000000	17.633017
5940.000000	17.666709
5938.000000	17.700190
5936.000000	17.733928
5934.000000	17.768409
5932.000000	17.802767
5930.000000	17.836479
5928.000000	17.869292
5926.000000	17.903417
5924.000000	17.939196
5922.000000	17.975588
5920.000000	18.011282
5918.000000	18.046794
5916.000000	18.082823
5914.000000	18.119264
5912.000000	18.155388
5910.000000	18.191611
5908.000000	18.228454
5906.000000	18.265852
5904.000000	18.302515
5902.000000	18.338809
5900.000000	18.374541
5898.000000	18.410903
5896.000000	18.447336
5894.000000	18.483790
5892.000000	18.520560
5890.000000	18.557347
5888.000000	18.593729
5886.000000	18.629546
5884.000000	18.665178
5882.000000	18.700996
5880.000000	18.736760
5878.000000	18.772684
5876.000000	18.808101
5874.000000	18.844148
5872.000000	18.881056
5870.000000	18.918891
5868.000000	18.956677
5866.000000	18.993461
5864.000000	19.030323
5862.000000	19.068116
5860.000000	19.106099
5858.000000	19.143719
5856.000000	19.180536
5854.000000	19.218157
5852.000000	19.256936
5850.000000	19.296032
5848.000000	19.335308
5846.000000	19.374276
5844.000000	19.413803
5842.000000	19.455087
5840.000000	19.496410
5838.000000	19.538654
5836.000000	19.580195
5834.000000	19.621867
5832.000000	19.663256
5830.000000	19.704323
5828.000000	19.746020
5826.000000	19.788338
5824.000000	19.830307
5822.000000	19.871551
5820.000000	19.911365
5818.000000	19.950873
5816.000000	19.990763
5814.000000	20.031981
5812.000000	20.073055
5810.000000	20.113829
5808.000000	20.154430
5806.000000	20.195299
5804.000000	20.235809
5802.000000	20.276148
5800.000000	20.316480
5798.000000	20.357244
5796.000000	20.397685
5794.000000	20.438206
5792.000000	20.479207
5790.000000	20.520679
5788.000000	20.562175
5786.000000	20.603817
5784.000000	20.645742
5782.000000	20.687626
5780.000000	20.728843
5778.000000	20.769882
5776.000000	20.811217
5774.000000	20.853600
5772.000000	20.895490
5770.000000	20.937688
5768.000000	20.980503
5766.000000	21.022804
5764.000000	21.064080
5762.000000	21.105172
5760.000000	21.147135
5758.000000	21.189803
5756.000000	21.231533
5754.000000	21.272885
5752.000000	21.314611
5750.000000	21.356737
5748.000000	21.398684
5746.000000	21.439959
5744.000000	21.480827
5742.000000	21.521753
5740.000000	21.562348
5738.000000	21.603064
5736.000000	21.643294
5734.000000	21.684085
5732.000000	21.724839
5730.000000	21.765462
5728.000000	21.805491
5726.000000	21.845779
5724.000000	21.886934
5722.000000	21.929315
5720.000000	21.971953
5718.000000	22.014390
5716.000000	22.056598
5714.000000	22.099324
5712.000000	22.143040
5710.000000	22.187837
5708.000000	22.232231
5706.000000	22.276159
5704.000000	22.319769
5702.000000	22.363806
5700.000000	22.408342
5698.000000	22.452782
5696.000000	22.497024
5694.000000	22.541949
5692.000000	22.587463
5690.000000	22.633383
5688.000000	22.679005
5686.000000	22.724570
5684.000000	22.770137
5682.000000	22.815441
5680.000000	22.860374
5678.000000	22.905453
5676.000000	22.950607
5674.000000	22.996208
5672.000000	23.041722
5670.000000	23.087406
5668.000000	23.133068
5666.000000	23.178398
5664.000000	23.223742
5662.000000	23.269290
5660.000000	23.314809
5658.000000	23.359893
5656.000000	23.404518
5654.000000	23.449805
5652.000000	23.495663
5650.000000	23.541729
5648.000000	23.587002
5646.000000	23.631890
5644.000000	23.676607
5642.000000	23.722246
5640.000000	23.768558
5638.000000	23.814647
5636.000000	23.860169
5634.000000	23.905732
5632.000000	23.950553
5630.000000	23.995433
5628.000000	24.040314
5626.000000	24.085892
5624.000000	24.131182
5622.000000	24.175808
5620.000000	24.220627
5618.000000	24.266139
5616.000000	24.311764
5614.000000	24.357240
5612.000000	24.402893
5610.000000	24.448568
5608.000000	24.494403
5606.000000	24.540203
5604.000000	24.585740
5602.000000	24.631713
5600.000000	24.677492
5598.000000	24.723520
5596.000000	24.769837
5594.000000	24.816540
5592.000000	24.863048
5590.000000	24.909048
5588.000000	24.955221
5586.000000	25.002629
5584.000000	25.050259
5582.000000	25.097489
5580.000000	25.144252
5578.000000	25.191624
5576.000000	25.239498
5574.000000	25.287146
5572.000000	25.334224
5570.000000	25.380990
5568.000000	25.428438
5566.000000	25.476442
5564.000000	25.524577
5562.000000	25.572855
5560.000000	25.621305
5558.000000	25.669473
5556.000000	25.716186
5554.000000	25.762314
5552.000000	25.808861
5550.000000	25.856295
5548.000000	25.903991
5546.000000	25.952668
5544.000000	26.001572
5542.000000	26.049315
5540.000000	26.095091
5538.000000	26.140402
5536.000000	26.187416
5534.000000	26.236346
5532.000000	26.284854
5530.000000	26.333048
5528.000000	26.380013
5526.000000	26.425912
5524.000000	26.470918
5522.000000	26.516968
5520.000000	26.564372
5518.000000	26.612557
5516.000000	26.661034
5514.000000	26.709602
5512.000000	26.756146
5510.000000	26.799995
5508.000000	26.844853
5506.000000	26.893699
5504.000000	26.944885
5502.000000	26.994882
5500.000000	27.042648
5498.000000	27.087718
5496.000000	27.128094
5494.000000	27.167982
5492.000000	27.212787
5490.000000	27.265734
5488.000000	27.322511
5486.000000	27.379911
5484.000000	27.434857
5482.000000	27.485900
5480.000000	27.527801
5478.000000	27.562575
5476.000000	27.602589
5474.000000	27.655316
5472.000000	27.714074
5470.000000	27.766999
5468.000000	27.814054
5466.000000	27.859734
5464.000000	27.902931
5462.000000	27.948444
5460.000000	28.000205
5458.000000	28.057239
5456.000000	28.114314
5454.000000	28.165091
5452.000000	28.208370
5450.000000	28.245297
5448.000000	28.282105
5446.000000	28.325120
5444.000000	28.372115
5442.000000	28.426740
5440.000000	28.482671
5438.000000	28.532299
5436.000000	28.578140
5434.000000	28.623775
5432.000000	28.667870
5430.000000	28.713215
5428.000000	28.768842
5426.000000	28.837014
5424.000000	28.902475
5422.000000	28.958722
5420.000000	29.007563
5418.000000	29.040614
5416.000000	29.061242
5414.000000	29.088034
5412.000000	29.136948
5410.000000	29.205040
5408.000000	29.274293
5406.000000	29.337450
5404.000000	29.393802
5402.000000	29.445681
5400.000000	29.491097
5398.000000	29.525995
5396.000000	29.558317
5394.000000	29.605183
5392.000000	29.668085
5390.000000	29.729006
5388.000000	29.774812
5386.000000	29.820825
5384.000000	29.878829
5382.000000	29.937180
5380.000000	29.977247
5378.000000	30.011353
5376.000000	30.060249
5374.000000	30.127816
5372.000000	30.196754
5370.000000	30.256463
5368.000000	30.305740
5366.000000	30.350159
5364.000000	30.397515
5362.000000	30.451996
5360.000000	30.506618
5358.000000	30.548150
5356.000000	30.577691
5354.000000	30.614833
5352.000000	30.667734
5350.000000	30.724606
5348.000000	30.763486
5346.000000	30.798096
5344.000000	30.845670
5342.000000	30.898041
5340.000000	30.945732
5338.000000	30.998414
5336.000000	31.065907
5334.000000	31.135290
5332.000000	31.190152
5330.000000	31.234179
5328.000000	31.281419
5326.000000	31.339610
5324.000000	31.405071
5322.000000	31.465046
5320.000000	31.517099
5318.000000	31.565778
5316.000000	31.615445
5314.000000	31.667030
5312.000000	31.714726
5310.000000	31.755994
5308.000000	31.799700
5306.000000	31.853529
5304.000000	31.912056
5302.000000	31.967049
5300.000000	32.019804
5298.000000	32.074230
5296.000000	32.126761
5294.000000	32.170037
5292.000000	32.209497
5290.000000	32.256798
5288.000000	32.312942
5286.000000	32.371363
5284.000000	32.425456
5282.000000	32.479791
5280.000000	32.535521
5278.000000	32.593123
5276.000000	32.649789
5274.000000	32.701752
5272.000000	32.748220
5270.000000	32.791870
5268.000000	32.829745
5266.000000	32.864670
5264.000000	32.908862
5262.000000	32.971901
5260.000000	33.041378
5258.000000	33.095456
5256.000000	33.140293
5254.000000	33.190981
5252.000000	33.241977
5250.000000	33.283673
5248.000000	33.323615
5246.000000	33.377423
5244.000000	33.445304
5242.000000	33.515101
5240.000000	33.579316
5238.000000	33.633019
5236.000000	33.680942
5234.000000	33.726655
5232.000000	33.773997
5230.000000	33.820227
5228.000000	33.861981
5226.000000	33.907588
5224.000000	33.965849
5222.000000	34.030960
5220.000000	34.089217
5218.000000	34.143792
5216.000000	34.200752
5214.000000	34.255815
5212.000000	34.297837
5210.000000	34.326845
5208.000000	34.359960
5206.000000	34.416231
5204.000000	34.491189
5202.000000	34.563058
5200.000000	34.618099
5198.000000	34.667360
5196.000000	34.721665
5194.000000	34.780763
5192.000000	34.836768
5190.000000	34.888162
5188.000000	34.936705
5186.000000	34.987568
5184.000000	35.043203
5182.000000	35.103233
5180.000000	35.161888
5178.000000	35.218320
5176.000000	35.273036
5174.000000	35.326550
5172.000000	35.380174
5170.000000	35.435782
5168.000000	35.491162
5166.000000	35.544126
5164.000000	35.596699
5162.000000	35.651938
5160.000000	35.707081
5158.000000	35.760570
5156.000000	35.814617
5154.000000	35.870478
5152.000000	35.926486
5150.000000	35.982089
5148.000000	36.037543
5146.000000	36.091462
5144.000000	36.143237
5142.000000	36.196044
5140.000000	36.251267
5138.000000	36.307297
5136.000000	36.361002
5134.000000	36.414685
5132.000000	36.469228
5130.000000	36.523962
5128.000000	36.578286
5126.000000	36.633495
5124.000000	36.687911
5122.000000	36.740590
5120.000000	36.792966
5118.000000	36.847436
5116.000000	36.902422
5114.000000	36.957274
5112.000000	37.011804
5110.000000	37.067111
5108.000000	37.122563
5106.000000	37.177927
5104.000000	37.233725
5102.000000	37.289758
5100.000000	37.344872
5098.000000	37.399689
5096.000000	37.455106
5094.000000	37.511748
5092.000000	37.568780
5090.000000	37.626260
5088.000000	37.683143
5086.000000	37.740028
5084.000000	37.796808
5082.000000	37.853270
5080.000000	37.909347
5078.000000	37.966080
5076.000000	38.022359
5074.000000	38.078795
5072.000000	38.135478
5070.000000	38.192925
5068.000000	38.249938
5066.000000	38.306604
5064.000000	38.362745
5062.000000	38.418806
5060.000000	38.474206
5058.000000	38.529862
5056.000000	38.586293
5054.000000	38.643557
5052.000000	38.699636
5050.000000	38.755178
5048.000000	38.810784
5046.000000	38.867070
5044.000000	38.923579
5042.000000	38.980349
5040.000000	39.036371
5038.000000	39.092615
5036.000000	39.148550
5034.000000	39.203837
5032.000000	39.258253
5030.000000	39.313923
5028.000000	39.370406
5026.000000	39.426074
5024.000000	39.480976
5022.000000	39.536985
5020.000000	39.593465
5018.000000	39.649791
5016.000000	39.705735
5014.000000	39.762284
5012.000000	39.818842
5010.000000	39.876658
5008.000000	39.934810
5006.000000	39.992475
5004.000000	40.048919
5002.000000	40.106190
5000.000000	40.163967
4998.000000	40.221992
4996.000000	40.279575
4994.000000	40.338301
4992.000000	40.397393
4990.000000	40.455964
4988.000000	40.513536
4986.000000	40.571960
4984.000000	40.630432
4982.000000	40.688771
4980.000000	40.746998
4978.000000	40.805552
4976.000000	40.863601
4974.000000	40.921424
4972.000000	40.979049
4970.000000	41.036737
4968.000000	41.094311
4966.000000	41.151836
4964.000000	41.209138
4962.000000	41.267112
4960.000000	41.325251
4958.000000	41.383646
4956.000000	41.441083
4954.000000	41.496950
4952.000000	41.552130
4950.000000	41.609179
4948.000000	41.667122
4946.000000	41.724567
4944.000000	41.781085
4942.000000	41.838005
4940.000000	41.895094
4938.000000	41.952149
4936.000000	42.008162
4934.000000	42.064344
4932.000000	42.121230
4930.000000	42.178632
4928.000000	42.235035
4926.000000	42.291185
4924.000000	42.347831
4922.000000	42.405641
4920.000000	42.463715
4918.000000	42.521827
4916.000000	42.579396
4914.000000	42.636209
4912.000000	42.692947
4910.000000	42.751910
4908.000000	42.811615
4906.000000	42.870220
4904.000000	42.927777
4902.000000	42.986479
4900.000000	43.045656
4898.000000	43.105318
4896.000000	43.164881
4894.000000	43.224409
4892.000000	43.283382
4890.000000	43.342299
4888.000000	43.401239
4886.000000	43.461114
4884.000000	43.521108
4882.000000	43.580578
4880.000000	43.639212
4878.000000	43.698482
4876.000000	43.757725
4874.000000	43.817053
4872.000000	43.875818
4870.000000	43.934530
4868.000000	43.992356
4866.000000	44.050531
4864.000000	44.109433
4862.000000	44.168628
4860.000000	44.227047
4858.000000	44.285439
4856.000000	44.343568
4854.000000	44.401107
4852.000000	44.457923
4850.000000	44.515547
4848.000000	44.573928
4846.000000	44.632699
4844.000000	44.690447
4842.000000	44.748082
4840.000000	44.805283
4838.000000	44.862349
4836.000000	44.919368
4834.000000	44.977053
4832.000000	45.034808
4830.000000	45.093281
4828.000000	45.151812
4826.000000	45.210359
4824.000000	45.268230
4822.000000	45.325810
4820.000000	45.383227
4818.000000	45.442188
4816.000000	45.501208
4814.000000	45.560364
4812.000000	45.619941
4810.000000	45.680233
4808.000000	45.739107
4806.000000	45.798116
4804.000000	45.858032
4802.000000	45.919233
4800.000000	45.979871
4798.000000	46.040716
4796.000000	46.101391
4794.000000	46.161786
4792.000000	46.221581
4790.000000	46.282339
4788.000000	46.343316
4786.000000	46.404195
4784.000000	46.464221
4782.000000	46.524275
4780.000000	46.583835
4778.000000	46.643897
4776.000000	46.704178
4774.000000	46.765037
4772.000000	46.824664
4770.000000	46.883795
4768.000000	46.942740
4766.000000	47.002735
4764.000000	47.062174
4762.000000	47.121505
4760.000000	47.179958
4758.000000	47.239238
4756.000000	47.298247
4754.000000	47.356659
4752.000000	47.414467
4750.000000	47.473092
4748.000000	47.531258
4746.000000	47.589024
4744.000000	47.646750
4742.000000	47.705199
4740.000000	47.763362
4738.000000	47.820935
4736.000000	47.877693
4734.000000	47.935264
4732.000000	47.993783
4730.000000	48.053112
4728.000000	48.112223
4726.000000	48.171746
4724.000000	48.231500
4722.000000	48.291668
4720.000000	48.351362
4718.000000	48.411728
4716.000000	48.472583
4714.000000	48.533894
4712.000000	48.595343
4710.000000	48.658247
4708.000000	48.721674
4706.000000	48.785373
4704.000000	48.849210
4702.000000	48.913296
4700.000000	48.975665
4698.000000	49.037615
4696.000000	49.099248
4694.000000	49.161219
4692.000000	49.223078
4690.000000	49.285827
4688.000000	49.347757
4686.000000	49.409420
4684.000000	49.471086
4682.000000	49.533053
4680.000000	49.594210
4678.000000	49.655418
4676.000000	49.716298
4674.000000	49.777298
4672.000000	49.838250
4670.000000	49.899677
4668.000000	49.960871
4666.000000	50.022339
4664.000000	50.083142
4662.000000	50.143850
4660.000000	50.204401
4658.000000	50.265500
4656.000000	50.326181
4654.000000	50.387559
4652.000000	50.448900
4650.000000	50.510240
4648.000000	50.571074
4646.000000	50.632927
4644.000000	50.694651
4642.000000	50.755967
4640.000000	50.816799
4638.000000	50.878397
4636.000000	50.939512
4634.000000	51.000376
4632.000000	51.060633
4630.000000	51.121897
4628.000000	51.183392
4626.000000	51.245420
4624.000000	51.306239
4622.000000	51.367125
4620.000000	51.428874
4618.000000	51.491837
4616.000000	51.554426
4614.000000	51.618194
4612.000000	51.683033
4610.000000	51.748319
4608.000000	51.812931
4606.000000	51.877855
4604.000000	51.942942
4602.000000	52.008668
4600.000000	52.073320
4598.000000	52.137627
4596.000000	52.201969
4594.000000	52.267332
4592.000000	52.332425
4590.000000	52.397765
4588.000000	52.462610
4586.000000	52.527397
4584.000000	52.591893
4582.000000	52.656499
4580.000000	52.720037
4578.000000	52.783761
4576.000000	52.847272
4574.000000	52.910903
4572.000000	52.974711
4570.000000	53.039119
4568.000000	53.102719
4566.000000	53.166830
4564.000000	53.230967
4562.000000	53.294659
4560.000000	53.356493
4558.000000	53.418170
4556.000000	53.480880
4554.000000	53.544895
4552.000000	53.607750
4550.000000	53.670022
4548.000000	53.732049
4546.000000	53.794704
4544.000000	53.857081
4542.000000	53.920278
4540.000000	53.983376
4538.000000	54.046593
4536.000000	54.109079
4534.000000	54.171546
4532.000000	54.233972
4530.000000	54.297669
4528.000000	54.360767
4526.000000	54.423921
4524.000000	54.487425
4522.000000	54.551195
4520.000000	54.614704
4518.000000	54.679708
4516.000000	54.744964
4514.000000	54.810303
4512.000000	54.874861
4510.000000	54.939602
4508.000000	55.004646
4506.000000	55.070920
4504.000000	55.136676
4502.000000	55.202099
4500.000000	55.267122
4498.000000	55.332933
4496.000000	55.398927
4494.000000	55.465325
4492.000000	55.530636
4490.000000	55.595938
4488.000000	55.661124
4486.000000	55.727019
4484.000000	55.791706
4482.000000	55.855305
4480.000000	55.918679
4478.000000	55.983564
4476.000000	56.047571
4474.000000	56.110858
4472.000000	56.173555
4470.000000	56.236788
4468.000000	56.299854
4466.000000	56.363004
4464.000000	56.425325
4462.000000	56.487861
4460.000000	56.550407
4458.000000	56.613533
4456.000000	56.675697
4454.000000	56.737730
4452.000000	56.799658
4450.000000	56.862235
4448.000000	56.924289
4446.000000	56.986485
4444.000000	57.047928
4442.000000	57.110136
4440.000000	57.172752
4438.000000	57.235991
4436.000000	57.298421
4434.000000	57.361303
4432.000000	57.424529
4430.000000	57.488409
4428.000000	57.551254
4426.000000	57.614358
4424.000000	57.677197
4422.000000	57.740500
4420.000000	57.804446
4418.000000	57.869831
4416.000000	57.934809
4414.000000	57.999431
4412.000000	58.063023
4410.000000	58.127311
4408.000000	58.191874
4406.000000	58.256596
4404.000000	58.321064
4402.000000	58.386257
4400.000000	58.450729
4398.000000	58.515224
4396.000000	58.578769
4394.000000	58.642168
4392.000000	58.705288
4390.000000	58.768478
4388.000000	58.830482
4386.000000	58.892868
4384.000000	58.954862
4382.000000	59.016055
4380.000000	59.075618
4378.000000	59.135975
4376.000000	59.196954
4374.000000	59.258192
4372.000000	59.317892
4370.000000	59.377281
4368.000000	59.437416
4366.000000	59.498627
4364.000000	59.558589
4362.000000	59.618563
4360.000000	59.679388
4358.000000	59.741998
4356.000000	59.804711
4354.000000	59.867477
4352.000000	59.929946
4350.000000	59.993332
4348.000000	60.057362
4346.000000	60.122035
4344.000000	60.185070
4342.000000	60.247860
4340.000000	60.310589
4338.000000	60.373672
4336.000000	60.436244
4334.000000	60.499541
4332.000000	60.563595
4330.000000	60.629418
4328.000000	60.694742
4326.000000	60.760275
4324.000000	60.826286
4322.000000	60.892597
4320.000000	60.958531
4318.000000	61.025700
4316.000000	61.093048
4314.000000	61.161516
4312.000000	61.230096
4310.000000	61.298241
4308.000000	61.365236
4306.000000	61.432436
4304.000000	61.498871
4302.000000	61.564738
4300.000000	61.629404
4298.000000	61.694684
4296.000000	61.759858
4294.000000	61.825281
4292.000000	61.889307
